SpectrumFile,BASELINE
Version,1.000000
Location,
Customer,
SampleInfo,
GPSData,51.118473,-114.185390,1162.000000,65322,71211
SystemTime,2011,12,7,0,3,29,515
Pipe km,0.000000
Pre-Dilution Factor,1.000000
Freeform Info,
Concentration,0.000000
CalibrationName,USB4000 dark
Unique Calibration File ID,20110323-0226570968-TESTBOX2-7E963C-00008931
CalibrationWavelength,700.000000
CalibrationType,2,0.000000,0.616679
CalibrationRSquared,1.000000
CalibrationConcentrations [ppm],2,0.000000,10.000000
CalibrationCounts,2,0.000000,16.215900
CalibrationWarnLow,0.000000
CalibrationWarnHigh,10.000000
CalibrationErrorLow,0.000000
CalibrationErrorHigh,0.000000
Spectrometer Name,USB4000
Spectrometer Serial,USB4H02759
IntegrationTime [ms],50.000000
AveragedSpectra,50
BoxcarWidth,100
WavelengthRange [nm],346.775360,1043.690197
IntensityRange [counts],-115.290401,1182.998093
WavelengthCount,3648
Wavelength [nm],Intensity [counts]
346.775,-106.812
346.991,-106.812
347.206,-106.812
347.421,-115.29
347.637,-106.648
347.852,67.2655
348.067,33.474
348.282,54.7729
348.498,43.591
348.713,53.2984
348.928,80.4954
349.143,76.2766
349.358,26.3881
349.574,41.8298
349.789,26.3471
350.004,99.4186
350.219,38.553
350.434,53.9128
350.649,48.7929
350.864,39.0036
351.079,64.2345
351.295,71.3615
351.51,29.9925
351.725,37.6109
351.94,14.8785
352.155,25.9375
352.37,60.753
352.585,47.4822
352.8,86.5574
353.015,8.85746
353.23,101.057
353.445,26.1833
353.66,55.7559
353.875,68.781
354.09,82.4615
354.305,33.7198
354.52,57.4353
354.735,30.2792
354.949,73.7371
355.164,84.1818
355.379,20.2851
355.594,60.5892
355.809,86.6393
356.024,69.805
356.239,67.2246
356.453,75.9899
356.668,54.4862
356.883,61.5722
357.098,86.7622
357.313,50.0216
357.527,71.4024
357.742,36.587
357.957,40.9287
358.172,56.4523
358.386,58.9917
358.601,55.0596
358.816,92.7013
359.03,22.5379
359.245,56.9028
359.46,94.012
359.674,61.0807
359.889,23.1932
360.104,77.874
360.318,58.9508
360.533,64.4803
360.748,39.618
360.962,57.2305
361.177,29.2962
361.391,54.2814
361.606,53.8309
361.82,63.9888
362.035,61.8999
362.25,35.2353
362.464,41.8298
362.679,111.788
362.893,50.4312
363.108,59.4833
363.322,83.4035
363.536,55.6331
363.751,48.7929
363.965,56.2884
364.18,53.708
364.394,71.0748
364.609,43.7139
364.823,63.9478
365.037,98.026
365.252,60.8349
365.466,30.2383
365.68,61.1626
365.895,40.6829
366.109,59.8519
366.323,36.7508
366.538,41.625
366.752,35.7268
366.966,53.7489
367.181,43.3862
367.395,40.1095
367.609,13.6497
367.823,95.5685
368.038,62.2275
368.252,53.9975
368.466,54.7487
368.68,55.6257
368.894,56.3718
369.109,57.0059
369.323,57.957
369.537,57.7886
369.751,57.9172
369.965,57.961
370.179,58.0668
370.393,58.1573
370.607,58.0688
370.822,58.1685
371.036,58.4491
371.25,58.4385
371.464,58.66
371.678,58.5249
371.892,58.658
372.106,58.5098
372.32,58.8234
372.534,58.9669
372.748,59.1539
372.962,59.169
373.176,59.2917
373.39,59.4659
373.604,59.7889
373.818,60.0198
374.031,59.9411
374.245,60.0575
374.459,60.0023
374.673,60.0895
374.887,59.9369
375.101,60.1217
375.315,60.1682
375.529,60.2069
375.742,60.0907
375.956,60.1537
376.17,60.1329
376.384,60.224
376.598,60.0581
376.811,59.8772
377.025,60.2458
377.239,60.408
377.453,60.4082
377.666,60.4565
377.88,60.3157
378.094,60.6652
378.307,60.7984
378.521,60.8993
378.735,60.6501
378.948,60.7424
379.162,60.7911
379.376,60.8897
379.589,61.1638
379.803,61.1445
380.016,60.9745
380.23,61.1993
380.444,61.1587
380.657,61.3185
380.871,61.4134
381.084,61.2512
381.298,61.0454
381.511,60.9843
381.725,61.2107
381.938,61.3927
382.152,61.3358
382.365,61.3572
382.579,61.3884
382.792,61.5131
383.006,61.5732
383.219,61.6737
383.433,61.64
383.646,61.6655
383.859,61.6708
384.073,61.7466
384.286,61.2983
384.5,61.3156
384.713,61.3833
384.926,61.2408
385.14,61.542
385.353,61.625
385.566,61.626
385.779,61.6144
385.993,61.5897
386.206,61.7338
386.419,61.6356
386.633,61.294
386.846,61.5025
387.059,61.7016
387.272,61.7022
387.485,62.0001
387.699,61.8884
387.912,62.0678
388.125,62.1972
388.338,62.6675
388.551,62.7987
388.764,62.8647
388.978,62.9569
389.191,63.0661
389.404,63.074
389.617,62.933
389.83,62.8698
390.043,63.0219
390.256,62.7474
390.469,62.9503
390.682,62.8794
390.895,62.9361
391.108,62.6956
391.321,62.618
391.534,62.2895
391.747,62.2626
391.96,61.7749
392.173,61.8613
392.386,62.2265
392.599,62.2587
392.812,62.6137
393.025,62.6453
393.238,62.708
393.451,62.6553
393.663,62.4955
393.876,62.7186
394.089,62.4519
394.302,62.6638
394.515,62.7219
394.728,62.6618
394.941,62.6051
395.153,62.4077
395.366,62.2355
395.579,62.3651
395.792,62.0875
396.004,62.2577
396.217,62.1067
396.43,62.1839
396.643,62.4871
396.855,62.3547
397.068,62.4193
397.281,62.4327
397.493,62.3938
397.706,62.3321
397.919,62.3567
398.131,62.6108
398.344,62.6997
398.557,62.609
398.769,62.1523
398.982,62.3533
399.194,62.2157
399.407,62.3139
399.619,62.4113
399.832,62.4715
400.045,62.6225
400.257,63.1559
400.47,63.2968
400.682,63.5914
400.895,63.7489
401.107,63.8468
401.319,63.9095
401.532,63.8834
401.744,64.0385
401.957,64.1718
402.169,63.8618
402.382,63.945
402.594,63.9906
402.806,64.2125
403.019,64.4573
403.231,64.3205
403.444,64.2152
403.656,64.2777
403.868,64.4889
404.081,64.7664
404.293,65.013
404.505,64.829
404.717,64.8118
404.93,65.0537
405.142,64.9308
405.354,65.1057
405.566,65.3867
405.779,65.4179
405.991,65.3368
406.203,65.437
406.415,65.3953
406.627,65.3906
406.84,65.3409
407.052,65.8348
407.264,65.5599
407.476,65.5
407.688,65.9251
407.9,65.9267
408.112,66.095
408.324,66.4571
408.537,66.5529
408.749,66.9301
408.961,67.108
409.173,67.3293
409.385,67.2914
409.597,67.0232
409.809,67.074
410.021,67.0885
410.233,67.3087
410.445,67.2411
410.657,67.8002
410.869,67.9883
411.081,67.9309
411.292,68.2208
411.504,68.3932
411.716,68.7295
411.928,69.0482
412.14,69.0961
412.352,69.2518
412.564,69.3375
412.776,69.3793
412.988,69.5065
413.199,69.3347
413.411,69.3162
413.623,69.3078
413.835,69.2383
414.047,69.4325
414.258,69.7463
414.47,69.9041
414.682,69.7588
414.894,69.9073
415.105,69.7099
415.317,69.6204
415.529,69.5193
415.74,69.4586
415.952,69.643
416.164,69.6283
416.375,69.5295
416.587,69.6532
416.799,69.9179
417.01,69.9815
417.222,70.0832
417.433,70.4942
417.645,70.4526
417.857,70.5521
418.068,70.6831
418.28,70.7442
418.491,70.863
418.703,71.1286
418.914,71.4142
419.126,71.7609
419.337,72.0087
419.549,71.9669
419.76,71.9009
419.972,71.8597
420.183,72.0401
420.394,72.0857
420.606,72.2357
420.817,71.9863
421.029,72.0182
421.24,72.0543
421.451,72.2669
421.663,72.5831
421.874,72.7688
422.085,72.7667
422.297,72.6369
422.508,72.8639
422.719,73.4926
422.931,73.5026
423.142,73.612
423.353,73.8871
423.565,74.0839
423.776,74.2115
423.987,74.6769
424.198,74.9869
424.409,74.8076
424.621,74.9288
424.832,75.0908
425.043,75.327
425.254,75.5461
425.465,75.6459
425.676,75.8896
425.888,76.1545
426.099,76.2621
426.31,76.3703
426.521,76.4999
426.732,76.6385
426.943,77.0228
427.154,77.2861
427.365,77.246
427.576,77.4669
427.787,77.1912
427.998,77.228
428.209,77.4654
428.42,77.8282
428.631,78.0794
428.842,78.1452
429.053,78.1045
429.264,78.5797
429.475,78.6675
429.686,78.8795
429.897,79.0989
430.108,79.006
430.319,79.587
430.529,79.6646
430.74,79.7151
430.951,79.8282
431.162,79.9334
431.373,80.0656
431.584,80.4033
431.794,80.8027
432.005,80.8184
432.216,81.132
432.427,81.2231
432.637,81.5528
432.848,82.2642
433.059,82.212
433.27,82.0888
433.48,82.4871
433.691,82.8366
433.902,83.3831
434.112,83.4374
434.323,83.7679
434.534,84.1184
434.744,84.2993
434.955,84.1779
435.166,84.2356
435.376,84.2965
435.587,84.724
435.797,84.908
436.008,84.9938
436.218,85.5485
436.429,85.8827
436.64,86.2587
436.85,86.2972
437.061,86.4472
437.271,87.0057
437.482,87.2511
437.692,87.7721
437.902,87.9551
438.113,88.1035
438.323,88.3828
438.534,88.3341
438.744,88.3871
438.955,88.8305
439.165,89.0146
439.375,89.039
439.586,88.9157
439.796,89.0716
440.006,89.127
440.217,89.58
440.427,89.8435
440.637,89.8835
440.848,89.7806
441.058,89.9856
441.268,90.375
441.479,90.4765
441.689,90.8157
441.899,91.0996
442.109,91.1228
442.319,91.5104
442.53,91.616
442.74,91.4699
442.95,91.9871
443.16,92.0643
443.37,92.5417
443.58,92.6074
443.791,93.1221
444.001,93.3004
444.211,93.4946
444.421,93.8987
444.631,94.485
444.841,94.984
445.051,95.2443
445.261,95.2856
445.471,96.8402
445.681,97.4082
445.891,97.8622
446.101,98.12
446.311,98.3722
446.521,98.4342
446.731,98.5758
446.941,99.0343
447.151,99.6715
447.361,99.7916
447.571,99.9144
447.781,100.39
447.991,100.53
448.201,100.969
448.41,101.709
448.62,101.873
448.83,102.217
449.04,102.305
449.25,102.79
449.46,102.896
449.669,103.142
449.879,103.445
450.089,103.515
450.299,104.098
450.508,104.23
450.718,104.517
450.928,104.537
451.138,104.76
451.347,105.229
451.557,105.633
451.767,105.99
451.976,106.473
452.186,106.988
452.396,107.161
452.605,107.277
452.815,107.742
453.025,107.763
453.234,108.178
453.444,108.42
453.653,108.603
453.863,108.612
454.072,108.761
454.282,109.048
454.491,109.227
454.701,109.596
454.911,109.922
455.12,110.306
455.329,110.563
455.539,111.117
455.748,111.456
455.958,111.563
456.167,112.05
456.377,112.395
456.586,112.43
456.795,112.534
457.005,112.998
457.214,113.632
457.424,113.953
457.633,114.342
457.842,114.668
458.052,115.12
458.261,115.333
458.47,115.683
458.679,116.037
458.889,116.286
459.098,116.603
459.307,116.963
459.517,117.297
459.726,117.505
459.935,118.022
460.144,118.266
460.353,118.467
460.563,118.956
460.772,119.203
460.981,119.661
461.19,120.053
461.399,120.323
461.608,120.658
461.817,121.418
462.026,122.046
462.236,122.547
462.445,122.985
462.654,123.516
462.863,123.974
463.072,124.499
463.281,124.912
463.49,125.263
463.699,125.797
463.908,126.184
464.117,126.282
464.326,126.955
464.535,127.704
464.744,128.185
464.952,128.165
465.161,128.305
465.37,128.745
465.579,129.006
465.788,129.238
465.997,129.842
466.206,130.227
466.415,130.843
466.623,131.463
466.832,131.82
467.041,132.477
467.25,132.928
467.459,133.337
467.667,133.858
467.876,134.499
468.085,135.009
468.294,135.438
468.502,135.971
468.711,136.815
468.92,137.381
469.128,138.137
469.337,138.452
469.546,139.085
469.754,139.61
469.963,140.389
470.172,141.274
470.38,141.764
470.589,142
470.798,142.542
471.006,143.028
471.215,143.8
471.423,144.312
471.632,144.715
471.84,145.167
472.049,145.85
472.257,146.429
472.466,146.907
472.674,147.506
472.883,148.279
473.091,148.535
473.3,149.183
473.508,149.831
473.716,150.478
473.925,150.971
474.133,151.539
474.342,152.123
474.55,152.897
474.758,153.669
474.967,153.874
475.175,154.816
475.383,155.771
475.592,156.279
475.8,156.686
476.008,157.061
476.217,157.771
476.425,158.448
476.633,158.82
476.841,159.188
477.05,159.831
477.258,160.705
477.466,161.253
477.674,161.507
477.882,162.224
478.091,162.916
478.299,163.506
478.507,163.948
478.715,164.882
478.923,165.281
479.131,166.164
479.339,166.511
479.547,167.297
479.755,167.941
479.963,168.701
480.171,169.399
480.38,169.99
480.588,170.992
480.796,171.793
481.004,171.937
481.212,172.563
481.42,173.381
481.627,174.491
481.835,175.214
482.043,176.043
482.251,176.618
482.459,177.274
482.667,177.933
482.875,178.605
483.083,179.718
483.291,180.408
483.499,181.209
483.706,181.773
483.914,182.35
484.122,183.093
484.33,183.739
484.538,184.569
484.745,185.22
484.953,185.62
485.161,186.131
485.369,186.828
485.576,187.986
485.784,188.509
485.992,189.411
486.199,190.076
486.407,190.71
486.615,191.352
486.822,191.82
487.03,192.504
487.238,193.164
487.445,192.295
487.653,192.815
487.861,193.571
488.068,194.036
488.276,194.652
488.483,195.431
488.691,196.206
488.898,196.924
489.106,197.328
489.313,198.165
489.521,199.016
489.728,199.379
489.936,200.091
490.143,200.778
490.351,201.198
490.558,202.018
490.766,202.601
490.973,203.445
491.18,203.771
491.388,204.381
491.595,205.226
491.802,206.125
492.01,206.748
492.217,207.172
492.424,208.131
492.632,208.625
492.839,209.788
493.046,210.381
493.254,210.96
493.461,211.426
493.668,212.192
493.875,213.072
494.083,213.311
494.29,213.999
494.497,214.845
494.704,215.262
494.911,215.989
495.119,216.518
495.326,217.378
495.533,218.163
495.74,218.833
495.947,219.345
496.154,219.968
496.361,220.377
496.568,220.687
496.775,221.118
496.982,221.608
497.19,222.345
497.397,222.894
497.604,223.587
497.811,224.297
498.018,224.962
498.225,225.651
498.432,226.258
498.638,226.886
498.845,227.869
499.052,228.304
499.259,228.953
499.466,229.659
499.673,230.043
499.88,230.809
500.087,231.289
500.294,231.884
500.501,232.43
500.707,232.937
500.914,233.321
501.121,233.996
501.328,234.34
501.535,235.255
501.741,236.044
501.948,236.649
502.155,237.537
502.362,237.849
502.568,238.441
502.775,239.046
502.982,239.503
503.188,240.005
503.395,240.502
503.602,240.603
503.808,240.709
504.015,241.077
504.222,241.218
504.428,241.676
504.635,242.644
504.841,242.819
505.048,243.287
505.254,243.817
505.461,244.436
505.668,244.662
505.874,245.386
506.081,245.98
506.287,246.061
506.494,246.338
506.7,246.979
506.907,247.808
507.113,248.169
507.319,248.824
507.526,249.505
507.732,250.079
507.939,250.515
508.145,250.629
508.351,250.813
508.558,251.037
508.764,251.234
508.97,251.549
509.177,251.89
509.383,252.272
509.589,252.459
509.796,252.5
510.002,253.062
510.208,253.233
510.414,253.312
510.621,253.584
510.827,253.654
511.033,254.159
511.239,254.508
511.445,254.75
511.652,254.942
511.858,255.254
512.064,255.517
512.27,255.923
512.476,256.016
512.682,256.442
512.888,256.711
513.095,256.865
513.301,257.162
513.507,257.34
513.713,257.42
513.919,257.768
514.125,257.812
514.331,258.273
514.537,258.469
514.743,258.849
514.949,259.145
515.155,259.494
515.361,259.591
515.567,259.783
515.773,259.952
515.978,260.125
516.184,260.22
516.39,260.007
516.596,260.198
516.802,260.19
517.008,260.144
517.214,260.292
517.419,260.634
517.625,260.94
517.831,261.113
518.037,261.168
518.243,261.575
518.448,262.097
518.654,262.377
518.86,262.492
519.066,262.912
519.271,263.213
519.477,263.4
519.683,263.54
519.888,263.843
520.094,264.034
520.3,263.809
520.505,264.352
520.711,264.561
520.917,265.155
521.122,265.482
521.328,265.579
521.533,265.689
521.739,266.174
521.944,266.419
522.15,266.473
522.356,266.662
522.561,267.197
522.767,267.185
522.972,267.234
523.177,267.402
523.383,268.012
523.588,268.171
523.794,268.187
523.999,268.103
524.205,268.457
524.41,268.694
524.615,268.592
524.821,268.724
525.026,268.755
525.232,268.904
525.437,269.26
525.642,269.467
525.847,269.735
526.053,269.798
526.258,270.076
526.463,270.259
526.669,270.502
526.874,270.275
527.079,269.884
527.284,270.035
527.49,270
527.695,269.885
527.9,269.868
528.105,269.691
528.31,269.602
528.515,269.579
528.721,269.66
528.926,269.498
529.131,269.413
529.336,269.515
529.541,269.7
529.746,269.74
529.951,269.725
530.156,269.78
530.361,269.527
530.566,269.516
530.771,269.454
530.976,269.31
531.181,269.479
531.386,269.323
531.591,269.135
531.796,269.195
532.001,269.174
532.206,268.928
532.411,268.856
532.616,268.902
532.821,268.703
533.025,268.307
533.23,267.912
533.435,267.824
533.64,267.629
533.845,267.293
534.05,267.337
534.254,266.966
534.459,266.81
534.664,266.393
534.869,266.49
535.073,266.332
535.278,266.001
535.483,265.857
535.688,265.677
535.892,265.505
536.097,265.446
536.302,264.963
536.506,264.968
536.711,264.815
536.916,264.45
537.12,264.239
537.325,264.369
537.529,264.133
537.734,264.031
537.938,264.727
538.143,264.973
538.348,264.858
538.552,264.416
538.757,264.409
538.961,264.462
539.166,264.301
539.37,264.278
539.575,263.922
539.779,263.635
539.983,263.573
540.188,263.145
540.392,262.86
540.597,262.769
540.801,262.516
541.005,262.374
541.21,261.803
541.414,261.742
541.618,261.592
541.823,261.457
542.027,261.128
542.231,261.114
542.436,260.638
542.64,260.625
542.844,259.954
543.048,259.507
543.253,259.194
543.457,258.616
543.661,258.311
543.865,258.186
544.069,257.705
544.274,257.476
544.478,257.143
544.682,257.072
544.886,256.883
545.09,257.049
545.294,256.754
545.498,256.887
545.702,256.449
545.907,255.765
546.111,255.538
546.315,255.321
546.519,255.051
546.723,254.496
546.927,254.434
547.131,254.206
547.335,253.787
547.539,253.833
547.743,253.687
547.947,253.546
548.15,253.062
548.354,252.746
548.558,252.401
548.762,252.051
548.966,251.417
549.17,251.125
549.374,250.881
549.578,250.558
549.781,250.362
549.985,250.12
550.189,250.04
550.393,250.011
550.597,249.67
550.8,249.287
551.004,249.147
551.208,249.075
551.412,248.938
551.615,248.723
551.819,248.565
552.023,248.302
552.226,247.896
552.43,247.463
552.634,246.967
552.837,246.818
553.041,246.251
553.244,245.926
553.448,245.792
553.652,245.633
553.855,245.39
554.059,245.43
554.262,245.194
554.466,244.961
554.669,244.747
554.873,244.645
555.076,244.504
555.28,244.231
555.483,243.878
555.687,243.517
555.89,243.07
556.094,242.569
556.297,242.163
556.5,241.781
556.704,241.427
556.907,241.254
557.111,241.039
557.314,240.703
557.517,240.653
557.721,240.445
557.924,240.34
558.127,239.949
558.33,239.596
558.534,239.361
558.737,238.977
558.94,238.505
559.144,238.253
559.347,238.014
559.55,237.596
559.753,237.29
559.956,236.895
560.159,236.716
560.363,236.849
560.566,236.621
560.769,236.372
560.972,235.921
561.175,235.714
561.378,235.728
561.581,235.165
561.784,234.942
561.987,234.441
562.19,233.869
562.394,233.53
562.597,233.786
562.8,233.371
563.003,233.091
563.205,232.738
563.408,232.641
563.611,232.383
563.814,232.442
564.017,232.467
564.22,231.958
564.423,231.452
564.626,231.303
564.829,231.108
565.032,231.255
565.235,230.793
565.437,230.763
565.64,230.431
565.843,230.474
566.046,230.381
566.249,230.289
566.451,229.794
566.654,229.787
566.857,229.827
567.06,229.743
567.262,229.78
567.465,230.02
567.668,229.983
567.87,229.892
568.073,229.931
568.276,229.708
568.478,229.754
568.681,229.989
568.884,229.919
569.086,230.213
569.289,230.316
569.491,230.615
569.694,230.662
569.896,230.927
570.099,231.228
570.301,231.103
570.504,231.146
570.706,231.092
570.909,231.108
571.111,231.253
571.314,231.807
571.516,231.953
571.719,232.166
571.921,232.302
572.124,232.438
572.326,232.583
572.528,232.819
572.731,232.947
572.933,233.272
573.135,233.802
573.338,233.848
573.54,233.905
573.742,234.072
573.945,234.738
574.147,235.132
574.349,235.409
574.551,235.578
574.754,235.983
574.956,236.446
575.158,236.535
575.36,237.172
575.562,237.763
575.765,237.792
575.967,238.04
576.169,238.691
576.371,239.007
576.573,239.478
576.775,239.502
576.977,239.703
577.179,240.124
577.382,240.195
577.584,240.592
577.786,240.968
577.988,241.659
578.19,241.804
578.392,242.398
578.594,242.959
578.796,242.904
578.998,243.107
579.2,243.36
579.401,243.975
579.603,244.441
579.805,244.742
580.007,245.006
580.209,244.856
580.411,245.746
580.613,246.378
580.815,246.856
581.016,247.25
581.218,247.794
581.42,248.229
581.622,248.765
581.824,249.513
582.025,250.476
582.227,251.129
582.429,251.455
582.631,251.792
582.832,252.38
583.034,252.907
583.236,253.394
583.437,253.927
583.639,254.645
