CalFile
Version,1.000000
Unique File ID,20110323-0219100374-TESTBOX2-7E963C-00007406
Requires Spectrometer iString,fffdecdcdadadacl,fffdecdccleidadcdcdgdf
Calibration Wavelength [nm],700.000000
Calibration Integration Time [ms],50.000000
Calibration Spectra To Average,50
Calibration Boxcar Width,100
Substance,USB2000 darkness
Calibration Points Wavelength [nm],0,10
Calibration Points Intensity [counts],0,2.56875
Calibration Points Intensity (raw) [counts],74.891,77.4597
Calibration Points Baseline [counts],74.891
Calibration Type,2
Calibration Parameters,0,3.89294
Calibration Rsquare,1.000000
Conc. Threshold Low Warning [ppm],0.000000
Conc. Threshold High Warning [ppm],10.000000
Conc. Threshold Low Error [ppm],0.000000
Conc. Threshold High Error [ppm],0.000000
SpectrumFile,CALIBRATION
Version,1.000000
Location,
Customer,
SampleInfo,
GPSData,51.118462,-114.185340,1172.000000,8150,230311
SystemTime,2011,3,23,2,16,56,561
Pipe km,0.000000
Pre-Dilution Factor,1.000000
Freeform Info,
Concentration,0.000000
CalibrationName,USB2000 darkness
Unique Calibration File ID,
CalibrationWavelength,700.000000
CalibrationType,2,0.000000,3.892943
CalibrationRSquared,1.000000
CalibrationConcentrations [ppm],2,0.000000,10.000000
CalibrationCounts,2,0.000000,2.568751
CalibrationWarnLow,0.000000
CalibrationWarnHigh,10.000000
CalibrationErrorLow,0.000000
CalibrationErrorHigh,0.000000
Spectrometer Name,USB2000+
Spectrometer Serial,USB2+H02265
IntegrationTime [ms],0.000000
AveragedSpectra,-858993460
BoxcarWidth,-858993460
WavelengthRange [nm],178.541230,881.840970
IntensityRange [counts],-72.131919,84.309489
WavelengthCount,2048
Wavelength [nm],Intensity [counts]
178.541,56.5039
178.924,56.5039
179.307,56.5039
179.689,-5.00535
180.072,-15.6314
180.454,-32.8109
180.837,-39.8793
181.219,-47.884
181.602,-57.1525
181.984,-59.3526
182.367,-66.3274
182.749,-70.1659
183.131,-66.2338
183.514,-66.6083
183.896,-62.3953
184.278,-67.2168
184.661,-72.1319
185.043,-60.7101
185.425,-48.2585
185.807,-42.5475
186.189,-43.2965
186.571,-45.9179
186.954,-37.6324
187.336,-16.7548
187.718,-15.7718
188.1,-5.56708
188.482,0.845985
188.864,-0.371094
189.245,8.38251
189.627,14.6083
190.009,25.7961
190.391,19.3362
190.773,22.5193
191.155,25.9833
191.536,41.0096
191.918,30.3835
192.3,47.5631
192.682,47.5163
193.063,52.0569
193.445,48.7802
193.826,61.934
194.208,59.5466
194.589,61.6063
194.971,68.1598
195.352,67.6917
195.734,70.2663
196.115,67.2236
196.497,64.883
196.878,74.7133
197.259,72.5132
197.641,75.6027
198.022,72.1855
198.403,73.6835
198.784,70.0322
199.166,67.6917
199.547,71.8578
199.928,64.9767
200.309,66.5682
200.69,67.4108
201.071,72.1855
201.452,74.3388
201.833,70.1258
202.214,79.9561
202.595,60.1552
202.976,62.168
203.357,70.2195
203.738,76.5857
204.119,64.9767
204.499,65.4448
204.88,62.1212
205.261,68.7215
205.642,60.9509
206.022,73.5898
206.403,58.6572
206.784,66.381
207.164,58.7976
207.545,60.436
207.925,63.0106
208.306,62.3553
208.686,55.6145
209.067,68.6747
209.447,57.2061
209.828,67.9257
210.208,64.1809
210.588,67.6917
210.969,66.7555
211.349,63.7128
211.729,65.2575
212.109,64.6022
212.49,64.883
212.87,60.6701
213.25,65.1171
213.63,65.3511
214.01,63.8064
214.39,63.0574
214.77,64.5554
215.15,64.3681
215.53,64.4149
215.91,68.5811
216.29,60.5296
216.67,50.9409
217.05,51.0473
217.429,51.0869
217.809,51.1465
218.189,51.5112
218.569,51.9554
218.948,52.4572
219.328,53.0129
219.708,53.6026
220.087,54.2444
220.467,54.9093
220.847,55.5738
221.226,56.2806
221.606,56.9085
221.985,57.5761
222.364,58.2336
222.744,58.8659
223.123,59.5641
223.503,60.2239
223.882,60.7802
224.261,61.3739
224.641,61.9244
225.02,62.4922
225.399,63.0162
225.778,63.4862
226.157,63.8942
226.536,64.2421
226.916,64.594
227.295,64.9366
227.674,65.2054
228.053,65.534
228.432,65.7459
228.811,65.9611
229.189,66.177
229.568,66.37
229.947,66.554
230.326,66.7406
230.705,66.8526
231.084,66.9362
231.462,67.0324
231.841,67.1127
232.22,67.1339
232.598,67.1905
232.977,67.2392
233.356,67.2692
233.734,67.309
234.113,67.3342
234.491,67.3775
234.87,67.3917
235.248,67.3347
235.627,67.3254
236.005,67.2969
236.383,67.296
236.762,67.2895
237.14,67.2881
237.518,67.3037
237.896,67.2911
238.275,67.3258
238.653,67.3265
239.031,67.3538
239.409,67.3461
239.787,67.3137
240.165,67.3363
240.543,67.2846
240.921,67.3545
241.299,67.4215
241.677,67.4642
242.055,67.4288
242.433,67.4469
242.811,67.4688
243.188,67.5289
243.566,67.524
243.944,67.5179
244.322,67.5124
244.699,67.5764
245.077,67.6057
245.455,67.6831
245.832,67.7161
246.21,67.7779
246.587,67.8112
246.965,67.8715
247.342,67.8817
247.72,67.9465
248.097,67.9716
248.475,68.0152
248.852,68.0373
249.229,68.0443
249.607,68.0832
249.984,68.1174
250.361,68.1668
250.738,68.2131
251.116,68.2543
251.493,68.3147
251.87,68.3296
252.247,68.3368
252.624,68.4174
253.001,68.4693
253.378,68.4998
253.755,68.5837
254.132,68.5653
254.509,68.5811
254.886,68.5736
255.263,68.6009
255.639,68.5843
256.016,68.5969
256.393,68.6361
256.77,68.7481
257.146,68.776
257.523,68.8631
257.9,68.9223
258.276,68.964
258.653,68.9784
259.029,69.0331
259.406,69.049
259.782,69.1037
260.159,69.1354
260.535,69.1577
260.912,69.1889
261.288,69.2229
261.664,69.2737
262.041,69.2576
262.417,69.2621
262.793,69.3026
263.169,69.32
263.545,69.3533
263.922,69.3929
264.298,69.4076
264.674,69.4486
265.05,69.5126
265.426,69.5418
265.802,69.5071
266.178,69.4831
266.554,69.5869
266.93,69.6244
267.305,69.6559
267.681,69.6594
268.057,69.7211
268.433,69.7877
268.809,69.7849
269.184,69.7933
269.56,69.8573
269.936,69.9747
270.311,69.9777
270.687,69.9696
271.062,70.0376
271.438,70.0697
271.813,70.1149
272.189,70.2141
272.564,70.257
272.94,70.2858
273.315,70.3974
273.69,70.4209
274.066,70.4661
274.441,70.4978
274.816,70.4787
275.191,70.5301
275.566,70.5888
275.942,70.6082
276.317,70.6261
276.692,70.6317
277.067,70.6671
277.442,70.6517
277.817,70.5942
278.192,70.5811
278.567,70.5639
278.942,70.5939
279.316,70.5863
279.691,70.5905
280.066,70.5807
280.441,70.5756
280.816,70.6389
281.19,70.6168
281.565,70.6289
281.94,70.6987
282.314,70.7712
282.689,70.8089
283.063,70.773
283.438,70.7607
283.812,70.7684
284.187,70.7511
284.561,70.7723
284.935,70.7595
285.31,70.7616
285.684,70.8012
286.058,70.7984
286.433,70.7721
286.807,70.7714
287.181,70.7903
287.555,70.8154
287.929,70.8778
288.303,70.9531
288.678,71.0166
289.052,70.9868
289.426,71.0248
289.8,71.0649
290.173,71.1096
290.547,71.1606
290.921,71.2507
291.295,71.2814
291.669,71.3262
292.043,71.3553
292.416,71.3429
292.79,71.2798
293.164,71.3399
293.537,71.3963
293.911,71.423
294.285,71.44
294.658,71.4726
295.032,71.4764
295.405,71.5085
295.779,71.5197
296.152,71.5479
296.525,71.5758
296.899,71.5847
297.272,71.6631
297.645,71.6923
298.019,71.71
298.392,71.7996
298.765,71.8199
299.138,71.7936
299.511,71.804
299.884,71.8071
300.258,71.8357
300.631,71.8828
301.004,71.9193
301.376,71.9191
301.749,71.9349
302.122,71.9864
302.495,71.9834
302.868,71.9869
303.241,72.0358
303.614,72.0174
303.986,71.9941
304.359,72.0309
304.732,72.0737
305.104,72.0875
305.477,72.07
305.85,72.077
306.222,72.1035
306.595,72.1217
306.967,72.1236
307.34,72.1317
307.712,72.1394
308.084,72.1599
308.457,72.175
308.829,72.1655
309.201,72.1888
309.573,72.1869
309.946,72.1767
310.318,72.2356
310.69,72.2784
311.062,72.3318
311.434,72.3474
311.806,72.3574
312.178,72.3842
312.55,72.3923
312.922,72.4273
313.294,72.4457
313.666,72.4585
314.038,72.4901
314.41,72.5251
314.781,72.5872
315.153,72.6378
315.525,72.618
315.897,72.6466
316.268,72.6511
316.64,72.6415
317.011,72.5695
317.383,72.5581
317.755,72.6182
318.126,72.638
318.498,72.6362
318.869,72.675
319.24,72.7596
319.612,72.6883
319.983,72.6827
320.354,72.709
320.726,72.7032
321.097,72.7354
321.468,72.7123
321.839,72.7482
322.21,72.7687
322.581,72.8162
322.952,72.8022
323.323,72.8101
323.694,72.8227
324.065,72.849
324.436,72.9131
324.807,72.9182
325.178,72.9117
325.549,72.9086
325.92,72.8812
326.29,72.9289
326.661,72.9224
327.032,72.9587
327.402,73.0074
327.773,73.0016
328.144,73.0053
328.514,73.0404
328.885,73.0176
329.255,73.0565
329.626,73.0961
329.996,73.1178
330.366,73.087
330.737,73.1159
331.107,73.1858
331.477,73.19
331.848,73.2028
332.218,73.2135
332.588,73.2179
332.958,73.2
333.328,73.2265
333.698,73.2335
334.068,73.2039
334.438,73.2719
334.808,73.2976
335.178,73.2771
335.548,73.2873
335.918,73.275
336.288,73.2372
336.658,73.2147
337.027,73.2396
337.397,73.2503
337.767,73.206
338.137,73.2324
338.506,73.1976
338.876,73.1632
339.245,73.2063
339.615,73.1923
339.984,73.2254
340.354,73.2454
340.723,73.3479
341.093,73.3963
341.462,73.3707
341.831,73.4135
342.201,73.4114
342.57,73.417
342.939,73.3919
343.308,73.3521
343.677,73.3551
344.047,73.3248
344.416,73.3388
344.785,73.3241
345.154,73.3514
345.523,73.3695
345.892,73.3539
346.261,73.3413
346.629,73.3812
346.998,73.3535
347.367,73.3616
347.736,73.3861
348.105,73.3758
348.473,73.3919
348.842,73.4052
349.211,73.4091
349.579,73.4636
349.948,73.4569
350.316,73.4433
350.685,73.5265
351.053,73.5258
351.422,73.4934
351.79,73.4718
352.159,73.5328
352.527,73.588
352.895,73.6017
353.263,73.649
353.632,73.6483
354,73.683
354.368,73.7522
354.736,73.7834
355.104,73.8094
355.472,73.8053
355.84,73.8311
356.208,73.8763
356.576,73.8546
356.944,73.7757
357.312,73.8076
357.68,73.7852
358.048,73.8153
358.415,73.8129
358.783,73.8672
359.151,73.8926
359.518,73.9571
359.886,73.9792
360.254,73.9995
360.621,74.0388
360.989,74.0409
361.356,74.0356
361.724,74.0796
362.091,74.0659
362.459,74.0328
362.826,73.9809
363.193,73.9792
363.56,73.9853
363.928,73.942
364.295,73.9117
364.662,73.901
365.029,73.8593
365.396,73.8628
365.763,73.8931
366.13,73.8833
366.497,73.9245
366.864,73.9711
367.231,74.0279
367.598,73.9878
367.965,73.942
368.332,73.965
368.699,73.9825
369.065,73.9646
369.432,73.9911
369.799,73.9811
370.165,73.9909
370.532,73.9697
370.899,73.9662
371.265,73.9573
371.632,73.9476
371.998,73.9469
372.365,73.9271
372.731,73.9301
373.097,73.9112
373.464,73.9261
373.83,73.9743
374.196,73.9534
374.562,74.0053
374.929,73.9564
375.295,73.9676
375.661,73.9368
376.027,73.9571
376.393,73.9864
376.759,74.0135
377.125,74.0989
377.491,74.0885
377.857,74.1062
378.223,74.1595
378.588,74.1562
378.954,74.1448
379.32,74.1965
379.686,74.1553
380.051,74.1879
380.417,74.1963
380.783,74.245
381.148,74.2538
381.514,74.2864
381.879,74.3446
382.245,74.3355
382.61,74.3665
382.976,74.3164
383.341,74.2831
383.706,74.3279
384.071,74.319
384.437,74.3144
384.802,74.3225
385.167,74.2943
385.532,74.2962
385.897,74.2836
386.262,74.2671
386.627,74.264
386.992,74.2787
387.357,74.3181
387.722,74.313
388.087,74.2941
388.452,74.2568
388.817,74.2529
389.182,74.2519
389.546,74.2575
389.911,74.2713
390.276,74.2359
390.64,74.2205
391.005,74.2389
391.37,74.2643
391.734,74.2445
392.099,74.241
392.463,74.2226
392.827,74.2184
393.192,74.2235
393.556,74.3116
393.92,74.3416
394.285,74.3325
394.649,74.3365
395.013,74.3113
395.377,74.3397
395.741,74.2876
396.105,74.2873
396.47,74.2268
396.834,74.2575
397.198,74.2431
397.561,74.2445
397.925,74.2452
398.289,74.2149
398.653,74.2142
399.017,74.2659
399.381,74.2685
399.744,74.2817
400.108,74.2186
400.472,74.1977
400.835,74.1704
401.199,74.176
401.562,74.1821
401.926,74.1453
402.289,74.156
402.653,74.1835
403.016,74.2037
403.379,74.176
403.743,74.1597
404.106,74.1716
404.469,74.207
404.832,74.1388
405.196,74.115
405.559,74.0815
405.922,74.1068
406.285,74.0952
406.648,74.112
407.011,74.0989
407.374,74.1087
407.737,74.1315
408.1,74.1017
408.462,74.0801
408.825,74.061
409.188,74.0584
409.551,74.0684
409.913,74.0787
410.276,74.0891
410.639,74.0824
411.001,74.1141
411.364,74.1707
411.726,74.2259
412.089,74.2981
412.451,74.2911
412.814,74.2934
413.176,74.2764
413.538,74.3074
413.9,74.3113
414.263,74.2738
414.625,74.2631
414.987,74.2675
415.349,74.2268
415.711,74.2554
416.073,74.22
416.435,74.2079
416.797,74.1956
417.159,74.2263
417.521,74.3144
417.883,74.3295
418.245,74.3616
418.607,74.3784
418.968,74.3858
419.33,74.3777
419.692,74.4073
420.053,74.3744
420.415,74.3772
420.776,74.3675
421.138,74.3556
421.499,74.3365
421.861,74.3532
422.222,74.3358
422.584,74.3251
422.945,74.299
423.306,74.2792
423.668,74.2582
424.029,74.2571
424.39,74.22
424.751,74.2629
425.112,74.2608
425.473,74.2007
425.834,74.1842
426.195,74.1942
426.556,74.179
426.917,74.2326
427.278,74.2682
427.639,74.2289
428,74.1923
428.36,74.1769
428.721,74.179
429.082,74.1725
429.443,74.1462
429.803,74.1367
430.164,74.1825
430.524,74.1769
430.885,74.1907
431.245,74.2263
431.606,74.2822
431.966,74.2645
432.326,74.2112
432.687,74.2245
433.047,74.2496
433.407,74.255
433.767,74.2037
434.128,74.2175
434.488,74.238
434.848,74.2368
435.208,74.254
435.568,74.312
435.928,74.2927
436.288,74.2755
436.648,74.3307
437.007,74.2843
437.367,74.3137
437.727,74.3043
438.087,74.343
438.446,74.3293
438.806,74.3709
439.166,74.394
439.525,74.3502
439.885,74.3246
440.244,74.3311
440.604,74.3595
440.963,74.3838
441.323,74.3952
441.682,74.3684
442.041,74.3553
442.4,74.3365
442.76,74.3493
443.119,74.3202
443.478,74.3132
443.837,74.3232
444.196,74.3495
444.555,74.3505
444.914,74.3286
445.273,74.3824
445.632,74.3803
445.991,74.4031
446.35,74.4094
446.709,74.3754
447.067,74.3651
447.426,74.3402
447.785,74.381
448.143,74.3544
448.502,74.35
448.861,74.3106
449.219,74.3074
449.578,74.2741
449.936,74.2158
450.295,74.2184
450.653,74.203
451.011,74.1842
451.37,74.2084
451.728,74.1886
452.086,74.1516
452.444,74.187
452.802,74.1905
453.16,74.1802
453.519,74.1707
453.877,74.166
454.235,74.1646
454.592,74.1222
454.95,74.0973
455.308,74.0582
455.666,74.1129
456.024,74.166
456.382,74.1236
456.739,74.1252
457.097,74.1099
457.455,74.112
457.812,74.0817
458.17,74.0712
458.527,74.0847
458.885,74.122
459.242,74.1353
459.6,74.0626
459.957,74.0034
460.314,74.009
460.672,74.0111
461.029,74.0172
461.386,73.9995
461.743,74.0009
462.1,73.9892
462.457,73.9706
462.814,73.9941
463.171,74.0197
463.528,74.0349
463.885,74.0218
464.242,74.047
464.599,74.0363
464.956,74.0444
465.313,74.0316
465.669,73.9799
466.026,73.9818
466.383,73.9618
466.739,73.9832
467.096,73.9909
467.452,74.0388
467.809,74.0034
468.165,74.0486
468.522,74.1015
468.878,74.1297
469.234,74.1008
469.591,74.0784
469.947,74.0898
470.303,74.0815
470.659,74.0752
471.015,74.1034
471.371,74.0586
471.728,74.0875
472.084,74.1469
472.439,74.1821
472.795,74.1944
473.151,74.2082
473.507,74.1681
473.863,74.1464
474.219,74.1946
474.574,74.1921
474.93,74.1273
475.286,74.1285
475.641,74.1767
475.997,74.1884
476.352,74.2126
476.708,74.1916
477.063,74.1877
477.419,74.2405
477.774,74.2466
478.13,74.261
478.485,74.2615
478.84,74.2797
479.195,74.3167
479.55,74.3062
479.906,74.2918
480.261,74.3029
480.616,74.3006
480.971,74.3071
481.326,74.313
481.681,74.3178
482.035,74.3498
482.39,74.3621
482.745,74.3223
483.1,74.2512
483.455,74.2426
483.809,74.2377
484.164,74.2135
484.518,74.2144
484.873,74.1665
485.228,74.2317
485.582,74.1807
485.936,74.1967
486.291,74.2168
486.645,74.2333
487,74.2405
487.354,74.2293
487.708,74.2522
488.062,74.2722
488.416,74.3595
488.771,74.4061
489.125,74.4408
489.479,74.4112
489.833,74.3574
490.187,74.2964
490.54,74.2906
490.894,74.2762
491.248,74.265
491.602,74.2321
491.956,74.2212
492.309,74.2061
492.663,74.1933
493.017,74.1839
493.37,74.1928
493.724,74.1767
494.077,74.18
494.431,74.1865
494.784,74.2103
495.138,74.2121
495.491,74.2387
495.844,74.2552
496.197,74.3057
496.551,74.3139
496.904,74.3139
497.257,74.262
497.61,74.2836
497.963,74.2936
498.316,74.3088
498.669,74.2778
499.022,74.2927
499.375,74.2841
499.728,74.3097
500.08,74.312
500.433,74.3085
500.786,74.289
501.139,74.3064
501.491,74.3516
501.844,74.3472
502.196,74.3449
502.549,74.39
502.901,74.3395
503.254,74.3083
503.606,74.2932
503.959,74.3013
504.311,74.2573
504.663,74.2119
505.015,74.1995
505.368,74.2238
505.72,74.2463
506.072,74.2072
506.424,74.1537
506.776,74.1415
507.128,74.0817
507.48,74.0691
507.832,74.1297
508.183,74.0808
508.535,74.1222
508.887,74.1378
509.239,74.1651
509.59,74.1164
509.942,74.1257
510.294,74.0754
510.645,74.1041
510.997,74.1206
511.348,74.1532
511.7,74.1618
512.051,74.136
512.402,74.1313
512.754,74.0936
513.105,74.0647
513.456,74.0824
513.807,74.0691
514.159,74.0365
514.51,74.0612
514.861,74.0624
515.212,74.0864
515.563,74.0833
515.914,74.1148
516.265,74.1145
516.615,74.0733
516.966,74.077
517.317,74.102
517.668,74.1136
518.018,74.1148
518.369,74.1187
518.72,74.0575
519.07,73.9981
519.421,74.006
519.771,74.044
520.122,74.094
520.472,74.0638
520.822,74.0633
521.173,74.0591
521.523,74.0996
521.873,74.1206
522.223,74.1471
522.573,74.163
522.923,74.1623
523.273,74.2063
523.623,74.2112
523.973,74.2072
524.323,74.1865
524.673,74.2268
525.023,74.2713
525.373,74.2713
525.723,74.2878
526.072,74.3185
526.422,74.3211
526.772,74.3381
527.121,74.2901
527.471,74.3111
527.82,74.3213
528.17,74.3376
528.519,74.3835
528.868,74.3935
529.218,74.4119
529.567,74.3996
529.916,74.3789
530.265,74.3591
530.615,74.4026
530.964,74.4157
531.313,74.4098
531.662,74.4101
532.011,74.4422
532.36,74.401
532.709,74.3877
533.058,74.4147
533.406,74.4443
533.755,74.4508
534.104,74.4292
534.452,74.4338
534.801,74.4541
535.15,74.4105
535.498,74.4389
535.847,74.4506
536.195,74.4527
536.544,74.4853
536.892,74.4692
537.24,74.4881
537.589,74.4681
537.937,74.4967
538.285,74.4559
538.633,74.5116
538.982,74.5044
539.33,74.4592
539.678,74.4427
540.026,74.4292
540.374,74.5049
540.722,74.5293
541.069,74.4879
541.417,74.4825
541.765,74.4543
542.113,74.4273
542.46,74.4005
542.808,74.3758
543.156,74.4124
543.503,74.4713
543.851,74.5184
544.198,74.5097
544.546,74.4934
544.893,74.5004
545.24,74.5037
545.588,74.5368
545.935,74.5403
546.282,74.5528
546.629,74.5589
546.977,74.533
547.324,74.5631
547.671,74.5836
548.018,74.5556
548.365,74.53
548.712,74.5386
549.058,74.5444
549.405,74.5163
549.752,74.4872
550.099,74.5365
550.446,74.5489
550.792,74.5512
551.139,74.5759
551.485,74.5859
551.832,74.5738
552.178,74.5945
552.525,74.6099
552.871,74.6343
553.218,74.69
553.564,74.7731
553.91,74.7983
554.256,74.7659
554.603,74.7177
554.949,74.7338
555.295,74.7846
555.641,74.7557
555.987,74.758
556.333,74.7536
556.679,74.7419
557.025,74.7415
557.37,74.7037
557.716,74.7163
558.062,74.7128
558.408,74.7319
558.753,74.7035
559.099,74.6395
559.444,74.6045
559.79,74.6015
560.135,74.6392
560.481,74.669
560.826,74.6541
561.172,74.6383
561.517,74.6513
561.862,74.6898
562.207,74.7179
562.553,74.752
562.898,74.7478
563.243,74.7156
563.588,74.6902
563.933,74.6846
564.278,74.7149
564.623,74.7503
564.967,74.7531
565.312,74.7843
565.657,74.8016
566.002,74.737
566.346,74.687
566.691,74.7105
567.036,74.7331
567.38,74.7748
567.725,74.7436
568.069,74.7554
568.414,74.7538
568.758,74.7485
569.102,74.7072
569.447,74.7261
569.791,74.6949
570.135,74.724
570.479,74.6972
570.823,74.7191
571.167,74.7173
571.511,74.728
571.855,74.7538
572.199,74.7231
572.543,74.724
572.887,74.7268
573.231,74.7242
573.575,74.6996
573.918,74.7287
574.262,74.7033
574.606,74.7147
574.949,74.687
