CalFile
Version,1.000000
Unique File ID,20111207-0014320750-TESTBOX2-7E963C-00018940
Requires Spectrometer iString,fffdecdedadada,fffdecdeeidadcdhdfdj
Calibration Wavelength [nm],780.000000
Calibration Integration Time [ms],50.000000
Calibration Spectra To Average,50
Calibration Boxcar Width,100
Substance,paper-distance
Calibration Points Wavelength [nm],0,1,10
Calibration Points Intensity [counts],0,468.91,3701.41
Calibration Points Intensity (raw) [counts],1107.09,1576,4808.5
Calibration Points Baseline [counts],1107.09
Calibration Type,2
Calibration Parameters,-0.131013,0.00273193
Calibration Rsquare,0.999340
Conc. Threshold Low Warning [ppm],0.000000
Conc. Threshold High Warning [ppm],10.000000
Conc. Threshold Low Error [ppm],0.000000
Conc. Threshold High Error [ppm],0.000000
SpectrumFile,CALIBRATION
Version,1.000000
Location,
Customer,
SampleInfo,
GPSData,51.118491,-114.185425,1143.658447,1107,71211
SystemTime,2011,12,7,0,13,15,218
Pipe km,0.000000
Pre-Dilution Factor,1.000000
Freeform Info,
Concentration,0.000000
CalibrationName,paper-distance
Unique Calibration File ID,
CalibrationWavelength,780.000000
CalibrationType,2,-0.131013,0.002732
CalibrationRSquared,0.999340
CalibrationConcentrations [ppm],3,0.000000,1.000000,10.000000
CalibrationCounts,3,0.000000,468.909715,3701.410325
CalibrationWarnLow,0.000000
CalibrationWarnHigh,10.000000
CalibrationErrorLow,0.000000
CalibrationErrorHigh,0.000000
Spectrometer Name,USB4000
Spectrometer Serial,USB4H02759
IntegrationTime [ms],0.000000
AveragedSpectra,-858993460
BoxcarWidth,-858993460
WavelengthRange [nm],346.775360,1043.690197
IntensityRange [counts],-134.587630,1128.796548
WavelengthCount,3648
Wavelength [nm],Intensity [counts]
346.775,-128.485
346.991,-128.485
347.206,-128.485
347.421,-130.819
347.637,-134.588
347.852,68.6528
348.067,44.8554
348.282,61.2801
348.498,40.227
348.713,66.3591
348.928,82.9886
349.143,79.0565
349.358,31.134
349.574,48.7875
349.789,25.8502
350.004,108.875
350.219,45.3469
350.434,47.6816
350.649,65.417
350.864,43.9133
351.079,71.5199
351.295,81.4321
351.51,25.7274
351.725,33.3458
351.94,5.32959
352.155,44.8144
352.37,66.6867
352.585,50.6307
352.8,104.656
353.015,31.7484
353.23,99.2494
353.445,37.196
353.66,53.4569
353.875,71.6838
354.09,84.5041
354.305,37.5646
354.52,58.331
354.735,33.0181
354.949,77.2133
355.164,103.96
355.379,35.3528
355.594,60.379
355.809,84.7908
356.024,76.3532
356.239,65.2532
356.453,92.0816
356.668,63.6967
356.883,68.6118
357.098,84.9137
357.313,57.5118
357.527,71.0284
357.742,49.238
357.957,34.8613
358.172,60.0923
358.386,62.2631
358.601,58.6177
358.816,91.0576
359.03,31.9941
359.245,65.8266
359.46,97.8978
359.674,48.1731
359.889,13.9311
360.104,81.7188
360.318,70.8236
360.533,61.7716
360.748,47.313
360.962,61.3211
361.177,43.5857
361.391,58.4129
361.606,55.2181
361.82,63.0004
362.035,58.0034
362.25,42.9713
362.464,46.3709
362.679,125.177
362.893,74.5509
363.108,72.0934
363.322,88.9277
363.536,52.4738
363.751,50.8764
363.965,59.0683
364.18,64.1473
364.394,75.1244
364.609,39.6945
364.823,66.9325
365.037,82.7428
365.252,57.2251
365.466,44.2
365.68,54.2351
365.895,50.5078
366.109,62.1812
366.323,37.8104
366.538,45.3879
366.752,39.3668
366.966,50.5487
367.181,51.9004
367.395,30.7654
367.609,32.5266
367.823,109.694
368.038,58.372
368.252,58.2799
368.466,59.1596
368.68,60.1897
368.894,61.0566
369.109,61.8222
369.323,62.9207
369.537,62.7854
369.751,62.8152
369.965,62.9048
370.179,62.9963
370.393,63.0452
370.607,63.0061
370.822,63.0683
371.036,63.3209
371.25,63.2883
371.464,63.4992
371.678,63.3566
371.892,63.4725
372.106,63.4298
372.32,63.6898
372.534,63.7823
372.748,63.9618
372.962,63.983
373.176,64.1691
373.39,64.4511
373.604,64.758
373.818,64.9391
374.031,64.8185
374.245,64.9131
374.459,64.7914
374.673,64.8629
374.887,64.7356
375.101,64.9098
375.315,65.0259
375.529,65.0651
375.742,64.9695
375.956,65.0188
376.17,65.0129
376.384,65.0724
376.598,64.8927
376.811,64.6465
377.025,64.9679
377.239,65.149
377.453,65.2434
377.666,65.3583
377.88,65.2067
378.094,65.5804
378.307,65.6829
378.521,65.7879
378.735,65.547
378.948,65.6279
379.162,65.6234
379.376,65.7347
379.589,66.1229
379.803,66.0742
380.016,65.9385
380.23,66.1761
380.444,66.2115
380.657,66.3603
380.871,66.4715
381.084,66.3527
381.298,66.1932
381.511,66.2615
381.725,66.4622
381.938,66.6215
382.152,66.6258
382.365,66.6179
382.579,66.5738
382.792,66.6953
383.006,66.7073
383.219,66.8204
383.433,66.8803
383.646,67.0103
383.859,67.0334
384.073,67.1477
384.286,66.7087
384.5,66.6558
384.713,66.6407
384.926,66.5282
385.14,66.8498
385.353,66.8885
385.566,66.9417
385.779,66.908
385.993,66.8661
386.206,67.0764
386.419,66.9938
386.633,66.7546
386.846,67.0613
387.059,67.2616
387.272,67.2685
387.485,67.5322
387.699,67.4295
387.912,67.6351
388.125,67.8136
388.338,68.2597
388.551,68.4523
388.764,68.5156
388.978,68.7039
389.191,68.7555
389.404,68.6887
389.617,68.5931
389.83,68.4358
390.043,68.5503
390.256,68.3412
390.469,68.4559
390.682,68.3392
390.895,68.4458
391.108,68.2589
391.321,68.1996
391.534,67.836
391.747,67.8185
391.96,67.3333
392.173,67.444
392.386,67.9186
392.599,68.0423
392.812,68.4215
393.025,68.4559
393.238,68.4458
393.451,68.3488
393.663,68.1046
393.876,68.4209
394.089,68.1918
394.302,68.3771
394.515,68.4182
394.728,68.3286
394.941,68.3769
395.153,68.156
395.366,68.0431
395.579,68.1191
395.792,67.8821
396.004,68.0535
396.217,67.9491
396.43,68.0686
396.643,68.3712
396.855,68.1723
397.068,68.351
397.281,68.4374
397.493,68.4578
397.706,68.3058
397.919,68.3017
398.131,68.6041
398.344,68.5688
398.557,68.4853
398.769,68.0162
398.982,68.2112
399.194,68.1389
399.407,68.3883
399.619,68.4508
399.832,68.5216
400.045,68.7147
400.257,69.2935
400.47,69.4451
400.682,69.7768
400.895,69.9912
401.107,70.1396
401.319,70.1864
401.532,70.0008
401.744,70.0731
401.957,70.2033
402.169,69.8642
402.382,69.9594
402.594,69.9388
402.806,70.2516
403.019,70.4524
403.231,70.3113
403.444,70.2455
403.656,70.2881
403.868,70.5422
404.081,70.8383
404.293,71.123
404.505,70.9944
404.717,70.9973
404.93,71.2797
405.142,71.1006
405.354,71.3443
405.566,71.6074
405.779,71.6671
405.991,71.6942
406.203,71.7865
406.415,71.7496
406.627,71.7099
406.84,71.6978
407.052,72.3344
407.264,72.1421
407.476,72.1794
407.688,72.5692
407.9,72.6538
408.112,72.8455
408.324,73.2891
408.537,73.3843
408.749,73.8149
408.961,74.0649
409.173,74.3606
409.385,74.3696
409.597,74.1988
409.809,74.1699
410.021,74.1739
410.233,74.3078
410.445,74.2151
410.657,74.7647
410.869,74.8676
411.081,74.8843
411.292,75.1089
411.504,75.2159
411.716,75.5501
411.928,75.8462
412.14,75.9328
412.352,76.0664
412.564,76.2207
412.776,76.2119
412.988,76.4041
413.199,76.207
413.411,76.1757
413.623,76.1844
413.835,76.1958
414.047,76.4575
414.258,76.7951
414.47,76.9757
414.682,76.8367
414.894,77.0158
415.105,76.7848
415.317,76.8057
415.529,76.7269
415.74,76.6939
415.952,76.8057
416.164,76.7269
416.375,76.7821
416.587,76.8553
416.799,77.0984
417.01,77.2335
417.222,77.3894
417.433,77.76
417.645,77.7075
417.857,77.813
418.068,77.89
418.28,77.9991
418.491,78.0724
418.703,78.3718
418.914,78.6974
419.126,79.1374
419.337,79.4494
419.549,79.4011
419.76,79.3403
419.972,79.3835
420.183,79.5415
420.394,79.495
420.606,79.7238
420.817,79.3868
421.029,79.3597
421.24,79.3876
421.451,79.6171
421.663,79.9431
421.874,80.2209
422.085,80.2013
422.297,80.0163
422.508,80.2859
422.719,80.8568
422.931,80.8758
423.142,80.9373
423.353,81.262
423.565,81.4627
423.776,81.536
423.987,82.1076
424.198,82.3797
424.409,82.2533
424.621,82.4082
424.832,82.5325
425.043,82.794
425.254,83.1194
425.465,83.1848
425.676,83.5353
425.888,83.7701
426.099,83.834
426.31,83.909
426.521,84.0474
426.732,84.2035
426.943,84.5157
427.154,84.7376
427.365,84.7466
427.576,84.9728
427.787,84.855
427.998,84.9603
428.209,85.1482
428.42,85.4763
428.631,85.7644
428.842,85.8313
429.053,85.8199
429.264,86.2604
429.475,86.3157
429.686,86.4854
429.897,86.7552
430.108,86.6492
430.319,87.2626
430.529,87.35
430.74,87.4085
430.951,87.5347
431.162,87.638
431.373,87.7185
431.584,88.0486
431.794,88.4798
432.005,88.5319
432.216,88.88
432.427,89.0177
432.637,89.3609
432.848,89.9802
433.059,89.9592
433.27,89.9323
433.48,90.3032
433.691,90.5797
433.902,91.1364
434.112,91.2897
434.323,91.5754
434.534,91.9833
434.744,92.2173
434.955,92.1066
435.166,92.1197
435.376,92.073
435.587,92.4981
435.797,92.7218
436.008,92.8029
436.218,93.3817
436.429,93.7277
436.64,94.1034
436.85,94.132
437.061,94.3302
437.271,94.9287
437.482,95.1417
437.692,95.667
437.902,95.8358
438.113,96.0342
438.323,96.3124
438.534,96.1999
438.744,96.2339
438.955,96.6354
439.165,96.8224
439.375,96.8626
439.586,96.6429
439.796,96.8573
440.006,96.7882
440.217,97.2349
440.427,97.4468
440.637,97.4725
440.848,97.4641
441.058,97.7835
441.268,98.2041
441.479,98.2411
441.689,98.6495
441.899,98.9366
442.109,98.9807
442.319,99.3358
442.53,99.4227
442.74,99.2772
442.95,99.7833
443.16,99.8532
443.37,100.317
443.58,100.311
443.791,100.919
444.001,101.219
444.211,101.395
444.421,101.785
444.631,102.409
444.841,102.841
445.051,103.07
445.261,102.997
445.471,104.54
445.681,105.029
445.891,105.466
446.101,105.849
446.311,106.101
446.521,106.154
446.731,106.292
446.941,106.767
447.151,107.392
447.361,107.447
447.571,107.557
447.781,107.981
447.991,108.073
448.201,108.465
448.41,109.146
448.62,109.405
448.83,109.728
449.04,109.871
449.25,110.259
449.46,110.327
449.669,110.453
449.879,110.656
450.089,110.713
450.299,111.309
450.508,111.354
450.718,111.588
450.928,111.602
451.138,111.782
451.347,112.207
451.557,112.523
451.767,112.883
451.976,113.296
452.186,113.836
452.396,114.024
452.605,114.172
452.815,114.667
453.025,114.749
453.234,115.156
453.444,115.326
453.653,115.578
453.863,115.629
454.072,115.786
454.282,116.108
454.491,116.278
454.701,116.642
454.911,116.939
455.12,117.299
455.329,117.564
455.539,118.182
455.748,118.509
455.958,118.65
456.167,119.114
456.377,119.454
456.586,119.541
456.795,119.646
457.005,120.102
457.214,120.684
457.424,120.999
457.633,121.351
457.842,121.758
458.052,122.143
458.261,122.413
458.47,122.793
458.679,123.115
458.889,123.378
459.098,123.761
459.307,124.059
459.517,124.343
459.726,124.54
459.935,125.064
460.144,125.249
460.353,125.514
460.563,125.978
460.772,126.297
460.981,126.717
461.19,127.048
461.399,127.205
461.608,127.572
461.817,128.307
462.026,128.803
462.236,129.224
462.445,129.554
462.654,130.148
462.863,130.563
463.072,131.151
463.281,131.606
463.49,131.91
463.699,132.502
463.908,132.852
464.117,132.945
464.326,133.566
464.535,134.3
464.744,134.848
464.952,134.867
465.161,135.04
465.37,135.484
465.579,135.637
465.788,135.79
465.997,136.382
466.206,136.689
466.415,137.28
466.623,137.864
466.832,138.132
467.041,138.756
467.25,139.215
467.459,139.594
467.667,140.109
467.876,140.692
468.085,141.268
468.294,141.63
468.502,142.103
468.711,142.933
468.92,143.432
469.128,144.137
469.337,144.491
469.546,145.065
469.754,145.555
469.963,146.159
470.172,146.967
470.38,147.481
470.589,147.759
470.798,148.276
471.006,148.681
471.215,149.358
471.423,149.853
471.632,150.232
471.84,150.691
472.049,151.329
472.257,151.941
472.466,152.314
472.674,152.804
472.883,153.506
473.091,153.726
473.3,154.36
473.508,155.045
473.716,155.65
473.925,156.044
474.133,156.694
474.342,157.181
474.55,157.884
474.758,158.608
474.967,158.779
475.175,159.691
475.383,160.601
475.592,161.126
475.8,161.514
476.008,161.894
476.217,162.515
476.425,163.152
476.633,163.488
476.841,163.846
477.05,164.475
477.258,165.396
477.466,165.972
477.674,166.199
477.882,166.847
478.091,167.591
478.299,168.12
478.507,168.496
478.715,169.374
478.923,169.835
479.131,170.695
479.339,171.036
479.547,171.828
479.755,172.4
479.963,173.105
480.171,173.804
480.38,174.391
480.588,175.308
480.796,176.034
481.004,176.158
481.212,176.699
481.42,177.49
481.627,178.592
481.835,179.378
482.043,180.259
482.251,180.773
482.459,181.412
482.667,181.981
482.875,182.661
483.083,183.693
483.291,184.294
483.499,185.066
483.706,185.61
483.914,186.182
484.122,186.824
484.33,187.412
484.538,188.215
484.745,188.889
484.953,189.213
485.161,189.683
485.369,190.385
485.576,191.569
485.784,191.941
485.992,192.798
486.199,193.544
486.407,194.103
486.615,194.648
486.822,195.041
487.03,195.658
487.238,196.39
487.445,195.515
487.653,196.097
487.861,196.841
488.068,197.25
488.276,197.845
488.483,198.603
488.691,199.293
488.898,199.978
489.106,200.335
489.313,201.131
489.521,201.958
489.728,202.311
489.936,203.032
490.143,203.683
490.351,204.047
490.558,204.806
490.766,205.341
490.973,206.095
491.18,206.464
491.388,206.999
491.595,207.861
491.802,208.748
492.01,209.389
492.217,209.663
492.424,210.595
492.632,211.053
492.839,212.075
493.046,212.625
493.254,213.192
493.461,213.653
493.668,214.389
493.875,215.171
494.083,215.297
494.29,216.002
494.497,216.857
494.704,217.24
494.911,217.848
495.119,218.298
495.326,219.145
495.533,219.864
495.74,220.524
495.947,221.09
496.154,221.627
496.361,221.976
496.568,222.246
496.775,222.71
496.982,223.21
497.19,223.908
497.397,224.445
497.604,225.053
497.811,225.738
498.018,226.431
498.225,227.017
498.432,227.565
498.638,228.139
498.845,229.053
499.052,229.399
499.259,230.035
499.466,230.624
499.673,230.776
499.88,231.598
500.087,232.025
500.294,232.59
500.501,233.073
500.707,233.583
500.914,234.004
501.121,234.602
501.328,234.923
501.535,235.706
501.741,236.486
501.948,237.038
502.155,237.799
502.362,238.021
502.568,238.614
502.775,239.195
502.982,239.703
503.188,240.174
503.395,240.543
503.602,240.66
503.808,240.861
504.015,241.144
504.222,241.313
504.428,241.66
504.635,242.588
504.841,242.704
505.048,243.201
505.254,243.782
505.461,244.253
505.668,244.455
505.874,245.131
506.081,245.76
506.287,245.729
506.494,245.876
506.7,246.454
506.907,247.235
507.113,247.571
507.319,248.187
507.526,248.946
507.732,249.44
507.939,249.804
508.145,249.922
508.351,250.057
508.558,250.27
508.764,250.448
508.97,250.648
509.177,250.91
509.383,251.235
509.589,251.364
509.796,251.366
510.002,251.953
510.208,252.159
510.414,252.135
510.621,252.391
510.827,252.5
511.033,252.949
511.239,253.286
511.445,253.489
511.652,253.72
511.858,254.028
512.064,254.265
512.27,254.655
512.476,254.737
512.682,255.169
512.888,255.457
513.095,255.621
513.301,255.841
513.507,256.011
513.713,256.107
513.919,256.42
514.125,256.499
514.331,257.033
514.537,257.232
514.743,257.581
514.949,257.872
515.155,258.164
515.361,258.261
515.567,258.506
515.773,258.531
515.978,258.754
516.184,258.902
516.39,258.692
516.596,258.913
516.802,258.912
517.008,258.885
517.214,258.989
517.419,259.392
517.625,259.605
517.831,259.8
518.037,259.762
518.243,260.177
518.448,260.605
518.654,260.801
518.86,260.803
519.066,261.282
519.271,261.497
519.477,261.706
519.683,261.858
519.888,262.184
520.094,262.361
520.3,262.115
520.505,262.609
520.711,262.805
520.917,263.325
521.122,263.589
521.328,263.661
521.533,263.734
521.739,264.213
521.944,264.392
522.15,264.426
522.356,264.575
522.561,264.975
522.767,264.979
522.972,264.988
523.177,265.099
523.383,265.581
523.588,265.732
523.794,265.745
523.999,265.649
524.205,266.07
524.41,266.186
524.615,265.983
524.821,266.099
525.026,266.155
525.232,266.156
525.437,266.425
525.642,266.604
525.847,266.928
526.053,266.978
526.258,267.122
526.463,267.261
526.669,267.516
526.874,267.307
527.079,266.84
527.284,267.024
527.49,266.999
527.695,266.764
527.9,266.748
528.105,266.571
528.31,266.572
528.515,266.552
528.721,266.556
528.926,266.366
529.131,266.158
529.336,266.208
529.541,266.422
529.746,266.417
529.951,266.358
530.156,266.424
530.361,266.167
530.566,266.175
530.771,266.102
530.976,266.018
531.181,266.092
531.386,265.96
531.591,265.73
531.796,265.774
532.001,265.71
532.206,265.4
532.411,265.365
532.616,265.443
532.821,265.276
533.025,264.884
533.23,264.566
533.435,264.412
533.64,264.266
533.845,263.969
534.05,263.968
534.254,263.627
534.459,263.48
534.664,263.078
534.869,263.135
535.073,262.892
535.278,262.569
535.483,262.424
535.688,262.206
535.892,262.009
536.097,261.926
536.302,261.546
536.506,261.609
536.711,261.487
536.916,261.148
537.12,260.964
537.325,261.063
537.529,260.877
537.734,260.82
537.938,261.602
538.143,261.775
538.348,261.629
538.552,261.211
538.757,261.138
538.961,261.297
539.166,261.174
539.37,261.06
539.575,260.679
539.779,260.358
539.983,260.266
540.188,259.836
540.392,259.569
540.597,259.52
540.801,259.275
541.005,259.194
541.21,258.547
541.414,258.592
541.618,258.437
541.823,258.329
542.027,258.03
542.231,257.897
542.436,257.426
542.64,257.368
542.844,256.796
543.048,256.285
543.253,255.971
543.457,255.498
543.661,255.217
543.865,255.003
544.069,254.543
544.274,254.28
544.478,253.944
544.682,253.94
544.886,253.707
545.09,253.83
545.294,253.555
545.498,253.638
545.702,253.199
545.907,252.519
546.111,252.27
546.315,252.065
546.519,251.783
546.723,251.285
546.927,251.256
547.131,251.045
547.335,250.549
547.539,250.626
547.743,250.505
547.947,250.415
548.15,249.923
548.354,249.61
548.558,249.298
548.762,248.862
548.966,248.315
549.17,248.033
549.374,247.723
549.578,247.404
549.781,247.314
549.985,247.105
550.189,247.093
550.393,247.09
550.597,246.77
550.8,246.354
551.004,246.243
551.208,246.111
551.412,245.933
551.615,245.789
551.819,245.662
552.023,245.391
552.226,244.984
552.43,244.585
552.634,244.077
552.837,243.825
553.041,243.268
553.244,242.929
553.448,242.827
553.652,242.577
553.855,242.297
554.059,242.249
554.262,242.014
554.466,241.834
554.669,241.652
554.873,241.539
555.076,241.397
555.28,241.075
555.483,240.765
555.687,240.361
555.89,239.934
556.094,239.366
556.297,238.94
556.5,238.578
556.704,238.176
556.907,237.985
557.111,237.717
557.314,237.309
557.517,237.227
557.721,237.004
557.924,236.847
558.127,236.404
558.33,236.064
558.534,235.807
558.737,235.486
558.94,234.94
559.144,234.73
559.347,234.486
559.55,234.074
559.753,233.84
559.956,233.469
560.159,233.24
560.363,233.396
560.566,233.159
560.769,232.975
560.972,232.605
561.175,232.399
561.378,232.462
561.581,231.871
561.784,231.654
561.987,231.182
562.19,230.653
562.394,230.355
562.597,230.577
562.8,230.151
563.003,229.896
563.205,229.613
563.408,229.612
563.611,229.505
563.814,229.591
564.017,229.686
564.22,229.254
564.423,228.734
564.626,228.583
564.829,228.45
565.032,228.59
565.235,228.074
565.437,227.945
565.64,227.593
565.843,227.694
566.046,227.625
566.249,227.57
566.451,227.099
566.654,227.198
566.857,227.192
567.06,227.09
567.262,227.159
567.465,227.458
567.668,227.41
567.87,227.21
568.073,227.251
568.276,227.075
568.478,227.089
568.681,227.239
568.884,227.205
569.086,227.48
569.289,227.519
569.491,227.83
569.694,227.849
569.896,228.074
570.099,228.463
570.301,228.369
570.504,228.341
570.706,228.283
570.909,228.337
571.111,228.441
571.314,228.916
571.516,229.033
571.719,229.287
571.921,229.354
572.124,229.568
572.326,229.667
572.528,229.92
572.731,230.154
572.933,230.399
573.135,230.953
573.338,230.988
573.54,230.984
