SpectrumFile,BASELINE
Version,1.000000
Location,
Customer,
SampleInfo,
GPSData,51.118519,-114.185438,1148.948730,193002,121211
SystemTime,2011,12,12,19,31,24,286
Pipe km,0.000000
Pre-Dilution Factor,1.000000
Freeform Info,
Concentration,0.000000
CalibrationName,paper-distance
Unique Calibration File ID,20111207-0014320750-TESTBOX2-7E963C-00018940
CalibrationWavelength,780.000000
CalibrationType,2,-0.131013,0.002732
CalibrationRSquared,0.999340
CalibrationConcentrations [ppm],3,0.000000,1.000000,10.000000
CalibrationCounts,3,0.000000,468.910000,3701.410000
CalibrationWarnLow,0.000000
CalibrationWarnHigh,10.000000
CalibrationErrorLow,0.000000
CalibrationErrorHigh,0.000000
Spectrometer Name,USB4000
Spectrometer Serial,USB4H02759
IntegrationTime [ms],50.000000
AveragedSpectra,50
BoxcarWidth,100
WavelengthRange [nm],346.775360,1043.690197
IntensityRange [counts],-102.139028,246.056211
WavelengthCount,3648
Wavelength [nm],Intensity [counts]
346.775,-102.139
346.991,-102.139
347.206,-102.139
347.421,-100.992
347.637,-96.4047
347.852,63.8284
348.067,37.2457
348.282,61.4527
348.498,34.7472
348.713,51.1719
348.928,66.245
349.143,56.4966
349.358,30.4874
349.574,40.3996
349.789,23.9339
350.004,90.2472
350.219,49.2468
350.434,48.7553
350.649,42.9391
350.864,35.8121
351.079,54.08
351.295,65.8763
351.51,30.4465
351.725,37.1638
351.94,10.2535
352.155,43.3487
352.37,56.4147
352.585,35.5664
352.8,88.5269
353.015,25.859
353.23,84.6357
353.445,24.6712
353.66,34.4605
353.875,59.0361
354.09,71.1601
354.305,37
354.52,48.1819
354.735,27.1697
354.949,64.0741
355.164,75.7066
355.379,21.3535
355.594,49.4926
355.809,78.0822
356.024,64.5247
356.239,66.9003
356.453,75.5427
356.668,52.3188
356.883,65.9992
357.098,84.4309
357.313,37
357.527,55.3498
357.742,36.8771
357.957,30.6922
358.172,51.9501
358.386,56.7833
358.601,49.5745
358.816,78.9424
359.03,11.8509
359.245,45.069
359.46,71.5287
359.674,48.5915
359.889,13.5302
360.104,62.0261
360.318,65.6306
360.533,66.9822
360.748,32.5764
360.962,52.9741
361.177,18.1587
361.391,61.5756
361.606,47.9361
361.82,63.7464
362.035,54.8583
362.25,34.0099
362.464,37
362.679,93.8106
362.893,54.1619
363.108,65.7534
363.322,68.0062
363.536,48.8372
363.751,53.3018
363.965,52.5236
364.18,51.9092
364.394,64.9343
364.609,37
364.823,50.7214
365.037,83.0383
365.252,46.6254
365.466,26.8011
365.68,41.4236
365.895,44.5365
366.109,53.138
366.323,34.2147
366.538,48.1409
366.752,28.1937
366.966,46.8302
367.181,47.4446
367.395,32.945
367.609,23.3605
367.823,91.3531
368.038,65.7125
368.252,48.7115
368.466,49.4651
368.68,50.3582
368.894,51.1332
369.109,51.7451
369.323,52.5702
369.537,52.4205
369.751,52.4386
369.965,52.4459
370.179,52.5517
370.393,52.6456
370.607,52.5774
370.822,52.7987
371.036,52.9686
371.25,52.9588
371.464,53.1422
371.678,53.0218
371.892,53.0876
372.106,52.9694
372.32,53.2466
372.534,53.3876
372.748,53.5404
372.962,53.4986
373.176,53.5757
373.39,53.6784
373.604,54.0107
373.818,54.1395
374.031,54.0527
374.245,54.1905
374.459,54.0603
374.673,54.1232
374.887,54.056
375.101,54.2082
375.315,54.3663
375.529,54.3688
375.742,54.22
375.956,54.2318
376.17,54.1854
376.384,54.3058
376.598,54.1075
376.811,53.9724
377.025,54.2818
377.239,54.4265
377.453,54.4248
377.666,54.5088
377.88,54.3883
378.094,54.6673
378.307,54.7071
378.521,54.7578
378.735,54.4796
378.948,54.5387
379.162,54.586
379.376,54.6708
379.589,54.9807
379.803,54.9707
380.016,54.7851
380.23,55.0339
380.444,55.03
380.657,55.2532
380.871,55.3528
381.084,55.2522
381.298,55.1213
381.511,55.159
381.725,55.3608
381.938,55.4504
382.152,55.3869
382.365,55.4246
382.579,55.4366
382.792,55.5768
383.006,55.5134
383.219,55.5745
383.433,55.5992
383.646,55.6404
383.859,55.6397
384.073,55.7555
384.286,55.4796
384.5,55.4908
384.713,55.5095
384.926,55.4282
385.14,55.6866
385.353,55.6618
385.566,55.685
385.779,55.6267
385.993,55.5823
386.206,55.7121
386.419,55.6891
386.633,55.3628
386.846,55.6208
387.059,55.7801
387.272,55.8219
387.485,56.01
387.699,55.8743
387.912,55.9839
388.125,56.0102
388.338,56.4084
388.551,56.5435
388.764,56.5643
388.978,56.7057
389.191,56.7783
389.404,56.7298
389.617,56.5745
389.83,56.54
390.043,56.6965
390.256,56.5052
390.469,56.6523
390.682,56.5227
390.895,56.5677
391.108,56.3646
391.321,56.3593
391.534,56.1531
391.747,56.1569
391.96,55.8052
392.173,55.8847
392.386,56.2091
392.599,56.2596
392.812,56.6607
393.025,56.7836
393.238,56.7693
393.451,56.6955
393.663,56.4811
393.876,56.7825
394.089,56.4783
394.302,56.6664
394.515,56.7261
394.728,56.6853
394.941,56.6713
395.153,56.5386
395.366,56.5021
395.579,56.5845
395.792,56.4632
396.004,56.6307
396.217,56.549
396.43,56.7077
396.643,56.9299
396.855,56.7956
397.068,56.9066
397.281,56.9708
397.493,56.9256
397.706,56.8445
397.919,56.8714
398.131,57.0886
398.344,57.0955
398.557,56.9969
398.769,56.6499
398.982,56.8787
399.194,56.8247
399.407,56.969
399.619,57.0721
399.832,57.1542
400.045,57.2716
400.257,57.8656
400.47,58.0596
400.682,58.4733
400.895,58.655
401.107,58.8927
401.319,59.0534
401.532,58.8896
401.744,58.9821
401.957,59.159
402.169,58.8861
402.382,58.9132
402.594,58.8957
402.806,59.095
403.019,59.3145
403.231,59.2768
403.444,59.1877
403.656,59.2148
403.868,59.4653
404.081,59.6589
404.293,59.8759
404.505,59.8023
404.717,59.8524
404.93,60.1646
405.142,60.0495
405.354,60.1663
405.566,60.4691
405.779,60.5455
405.991,60.5333
406.203,60.6975
406.415,60.5871
406.627,60.6979
406.84,60.6922
407.052,61.1395
407.264,60.8999
407.476,60.9121
407.688,61.2357
407.9,61.3586
408.112,61.5591
408.324,61.8525
408.537,61.9469
408.749,62.3351
408.961,62.5529
409.173,62.8386
409.385,62.8209
409.597,62.61
409.809,62.6228
410.021,62.7023
410.233,62.8647
410.445,62.8056
410.657,63.205
410.869,63.3501
411.081,63.3069
411.292,63.4762
411.504,63.517
411.716,63.7305
411.928,63.9612
412.14,64.0374
412.352,64.164
412.564,64.3747
412.776,64.4201
412.988,64.5561
413.199,64.39
413.411,64.4216
413.623,64.2991
413.835,64.3339
414.047,64.5236
414.258,64.7869
414.47,64.9245
414.682,64.8593
414.894,65.0608
415.105,64.8856
415.317,64.8409
415.529,64.7943
415.74,64.7977
415.952,65.0017
416.164,65.0408
416.375,65.0541
416.587,65.1812
416.799,65.4087
417.01,65.5124
417.222,65.6942
417.433,66.0518
417.645,65.9933
417.857,66.1103
418.068,66.1685
418.28,66.3371
418.491,66.5555
418.703,66.8651
418.914,67.1956
419.126,67.5467
419.337,67.9163
419.549,67.8795
419.76,67.8621
419.972,67.952
420.183,68.1322
420.394,68.1128
420.606,68.2455
420.817,68.0337
421.029,68.1533
421.24,68.2208
421.451,68.3914
421.663,68.7679
421.874,68.9385
422.085,69.0573
422.297,69.008
422.508,69.2277
422.719,69.8798
422.931,69.9048
423.142,70.0291
423.353,70.2659
423.565,70.5644
423.776,70.725
423.987,71.1401
424.198,71.4168
424.409,71.3304
424.621,71.5365
424.832,71.7085
425.043,71.9497
425.254,72.2479
425.465,72.4062
425.676,72.7591
425.888,73.0719
426.099,73.0919
426.31,73.238
426.521,73.4795
426.732,73.6855
426.943,73.938
427.154,74.1939
427.365,74.2318
427.576,74.4366
427.787,74.3594
427.998,74.4994
428.209,74.7584
428.42,75.0879
428.631,75.4231
428.842,75.5224
429.053,75.5711
429.264,76.0328
429.475,76.1396
429.686,76.3786
429.897,76.6613
430.108,76.6727
430.319,77.2793
430.529,77.4735
430.74,77.637
430.951,77.8725
431.162,78.0643
431.373,78.2098
431.584,78.4706
431.794,78.8586
432.005,78.9974
432.216,79.3092
432.427,79.441
432.637,79.7556
432.848,80.3277
433.059,80.3878
433.27,80.4385
433.48,80.8736
433.691,81.2432
433.902,81.716
434.112,81.8617
434.323,82.1584
434.534,82.5413
434.744,82.7538
434.955,82.6654
435.166,82.7595
435.376,82.7294
435.587,83.1188
435.797,83.3415
436.008,83.4491
436.218,84.0109
436.429,84.3659
436.64,84.8134
436.85,84.9014
437.061,85.1301
437.271,85.6642
437.482,85.9181
437.692,86.4332
437.902,86.6686
438.113,86.8461
438.323,87.132
438.534,87.163
438.744,87.2987
438.955,87.6887
439.165,87.9683
439.375,88.0704
439.586,87.9938
439.796,88.1941
440.006,88.351
440.217,88.8611
440.427,89.086
440.637,89.2533
440.848,89.2876
441.058,89.6101
441.268,90.0858
441.479,90.2571
441.689,90.6606
441.899,90.9583
442.109,91.0541
442.319,91.4505
442.53,91.6392
442.74,91.5585
442.95,92.0011
443.16,92.0779
443.37,92.5097
443.58,92.6454
443.791,93.15
444.001,93.4365
444.211,93.7222
444.421,94.0869
444.631,94.739
444.841,95.1892
445.051,95.46
445.261,95.5022
445.471,96.7359
445.681,97.209
445.891,97.7158
446.101,98.0223
446.311,98.2194
446.521,98.3041
446.731,98.512
446.941,98.975
447.151,99.5347
447.361,99.6275
447.571,99.7974
447.781,100.312
447.991,100.393
448.201,100.74
448.41,101.378
448.62,101.588
448.83,101.933
449.04,102.012
449.25,102.471
449.46,102.601
449.669,102.823
449.879,103.147
450.089,103.315
450.299,103.877
450.508,104.02
450.718,104.324
450.928,104.386
451.138,104.658
451.347,105.077
451.557,105.466
451.767,105.811
451.976,106.225
452.186,106.788
452.396,106.989
452.605,107.27
452.815,107.782
453.025,107.899
453.234,108.353
453.444,108.641
453.653,108.888
453.863,108.999
454.072,109.224
454.282,109.588
454.491,109.88
454.701,110.337
454.911,110.59
455.12,110.854
455.329,111.143
455.539,111.73
455.748,112.096
455.958,112.364
456.167,112.805
456.377,113.207
456.586,113.336
456.795,113.533
457.005,113.945
457.214,114.53
457.424,114.973
457.633,115.344
457.842,115.708
458.052,116.15
458.261,116.448
458.47,116.844
458.679,117.138
458.889,117.435
459.098,117.729
459.307,118.06
459.517,118.431
459.726,118.681
459.935,119.193
460.144,119.485
460.353,119.831
460.563,120.242
460.772,120.523
460.981,120.914
461.19,121.305
461.399,121.512
461.608,121.818
461.817,122.455
462.026,123.009
462.236,123.389
462.445,123.736
462.654,124.33
462.863,124.801
463.072,125.345
463.281,125.728
463.49,126.008
463.699,126.593
463.908,126.942
464.117,127.153
464.326,127.627
464.535,128.259
464.744,128.78
464.952,128.733
465.161,128.919
465.37,129.317
465.579,129.547
465.788,129.664
465.997,130.199
466.206,130.531
466.415,131.109
466.623,131.703
466.832,131.979
467.041,132.57
467.25,133.035
467.459,133.291
467.667,133.722
467.876,134.286
468.085,134.775
468.294,135.179
468.502,135.639
468.711,136.311
468.92,136.756
469.128,137.454
469.337,137.788
469.546,138.265
469.754,138.885
469.963,139.508
470.172,140.299
470.38,140.806
470.589,141.198
470.798,141.68
471.006,142.172
471.215,142.815
471.423,143.359
471.632,143.763
471.84,144.226
472.049,144.807
472.257,145.352
472.466,145.832
472.674,146.352
472.883,147.021
473.091,147.201
473.3,147.762
473.508,148.433
473.716,149.11
473.925,149.586
474.133,150.099
474.342,150.674
474.55,151.389
474.758,152.13
474.967,152.398
475.175,153.225
475.383,154.11
475.592,154.563
475.8,154.908
476.008,155.294
476.217,155.943
476.425,156.612
476.633,157.009
476.841,157.37
477.05,158.014
477.258,158.838
477.466,159.389
477.674,159.69
477.882,160.417
478.091,161.114
478.299,161.655
478.507,162.073
478.715,162.941
478.923,163.45
479.131,164.282
479.339,164.678
479.547,165.466
479.755,166.051
479.963,166.602
480.171,167.245
480.38,167.766
480.588,168.617
480.796,169.345
481.004,169.508
481.212,170.033
481.42,170.784
481.627,171.742
481.835,172.513
482.043,173.287
482.251,173.814
482.459,174.52
482.667,175.095
482.875,175.781
483.083,176.756
483.291,177.31
483.499,177.985
483.706,178.489
483.914,179.105
484.122,179.735
484.33,180.308
484.538,181.071
484.745,181.671
484.953,182.094
485.161,182.49
485.369,183.25
485.576,184.296
485.784,184.734
485.992,185.6
486.199,186.285
486.407,186.905
486.615,187.471
486.822,187.901
487.03,188.568
487.238,189.207
487.445,188.674
487.653,189.174
487.861,189.882
488.068,190.355
488.276,190.989
488.483,191.791
488.691,192.424
488.898,193.085
489.106,193.486
489.313,194.352
489.521,195.175
489.728,195.509
489.936,196.24
490.143,196.966
490.351,197.353
490.558,198.076
490.766,198.658
490.973,199.441
491.18,199.904
491.388,200.468
491.595,201.296
491.802,202.115
492.01,202.713
492.217,203.052
492.424,203.888
492.632,204.396
492.839,205.346
493.046,205.866
493.254,206.4
493.461,206.815
493.668,207.542
493.875,208.25
494.083,208.432
494.29,209.022
494.497,209.762
494.704,210.103
494.911,210.713
495.119,211.114
495.326,211.794
495.533,212.526
495.74,213.07
495.947,213.498
496.154,213.946
496.361,214.203
496.568,214.336
496.775,214.733
496.982,215.287
497.19,215.902
497.397,216.31
497.604,216.832
497.811,217.359
498.018,217.964
498.225,218.481
498.432,218.985
498.638,219.459
498.845,220.266
499.052,220.538
499.259,220.926
499.466,221.461
499.673,221.763
499.88,222.48
500.087,222.77
500.294,223.253
500.501,223.734
500.707,224.084
500.914,224.504
501.121,224.979
501.328,225.175
501.535,225.869
501.741,226.511
501.948,226.91
502.155,227.534
502.362,227.747
502.568,228.227
502.775,228.731
502.982,229.112
503.188,229.422
503.395,229.784
503.602,229.958
503.808,230.081
504.015,230.34
504.222,230.518
504.428,230.836
504.635,231.6
504.841,231.687
505.048,232.125
505.254,232.551
505.461,233.045
505.668,233.198
505.874,233.758
506.081,234.339
506.287,234.293
506.494,234.413
506.7,234.923
506.907,235.561
507.113,235.865
507.319,236.409
507.526,237.129
507.732,237.534
507.939,237.895
508.145,238.016
508.351,238.116
508.558,238.347
508.764,238.437
508.97,238.582
509.177,238.906
509.383,239.193
509.589,239.269
509.796,239.23
510.002,239.718
510.208,239.845
510.414,239.866
510.621,240.005
510.827,239.965
511.033,240.328
511.239,240.645
511.445,240.689
511.652,240.803
511.858,241.008
512.064,241.167
512.27,241.391
512.476,241.43
512.682,241.762
512.888,242.017
513.095,242.069
513.301,242.186
513.507,242.289
513.713,242.37
513.919,242.658
514.125,242.59
514.331,242.964
514.537,243.145
514.743,243.434
514.949,243.594
515.155,243.763
515.361,243.741
515.567,243.866
515.773,243.875
515.978,243.976
516.184,243.993
516.39,243.698
516.596,243.784
516.802,243.732
517.008,243.598
517.214,243.661
517.419,243.941
517.625,244.066
517.831,244.116
518.037,244.024
518.243,244.205
518.448,244.507
518.654,244.629
518.86,244.567
519.066,244.904
519.271,244.941
519.477,244.912
519.683,244.941
519.888,245.087
520.094,245.104
520.3,244.847
520.505,245.055
520.711,245.032
520.917,245.337
521.122,245.393
521.328,245.329
521.533,245.313
521.739,245.606
521.944,245.668
522.15,245.585
522.356,245.648
522.561,245.93
522.767,245.787
522.972,245.667
523.177,245.711
523.383,246.056
523.588,246.015
523.794,245.895
523.999,245.593
524.205,245.797
524.41,245.812
524.615,245.568
524.821,245.562
525.026,245.462
525.232,245.411
525.437,245.485
525.642,245.557
525.847,245.698
526.053,245.654
526.258,245.702
526.463,245.657
526.669,245.685
526.874,245.299
527.079,244.758
527.284,244.781
527.49,244.565
527.695,244.162
527.9,243.982
528.105,243.627
528.31,243.53
528.515,243.343
528.721,243.29
528.926,242.991
529.131,242.732
529.336,242.671
529.541,242.654
529.746,242.525
529.951,242.265
530.156,242.215
530.361,241.857
530.566,241.685
530.771,241.492
530.976,241.23
531.181,241.176
531.386,240.918
531.591,240.593
531.796,240.508
532.001,240.292
532.206,239.929
532.411,239.714
532.616,239.493
532.821,239.204
533.025,238.721
533.23,238.229
533.435,237.98
533.64,237.674
533.845,237.215
534.05,236.996
534.254,236.628
534.459,236.358
534.664,235.871
534.869,235.822
535.073,235.482
535.278,235.064
535.483,234.818
535.688,234.563
535.892,234.229
536.097,234.019
536.302,233.518
536.506,233.412
536.711,233.233
536.916,232.748
537.12,232.532
537.325,232.49
537.529,232.198
537.734,232.068
537.938,232.652
538.143,232.762
538.348,232.436
538.552,231.941
538.757,231.834
538.961,231.828
539.166,231.585
539.37,231.398
539.575,230.945
539.779,230.56
539.983,230.376
540.188,229.829
540.392,229.47
540.597,229.344
540.801,228.978
541.005,228.702
541.21,228.083
541.414,227.969
541.618,227.705
541.823,227.391
542.027,226.99
542.231,226.801
542.436,226.378
542.64,226.261
542.844,225.565
543.048,225.018
543.253,224.737
543.457,224.153
543.661,223.812
543.865,223.511
544.069,222.903
544.274,222.544
544.478,222.247
544.682,222.165
544.886,221.777
545.09,221.699
545.294,221.31
545.498,221.245
545.702,220.757
545.907,219.983
546.111,219.634
546.315,219.298
546.519,218.966
546.723,218.343
546.927,218.199
547.131,217.841
547.335,217.182
547.539,217.149
547.743,216.91
547.947,216.705
548.15,216.069
548.354,215.649
548.558,215.224
548.762,214.584
548.966,213.978
549.17,213.582
549.374,213.091
549.578,212.67
549.781,212.314
549.985,211.996
550.189,211.823
550.393,211.681
550.597,211.257
550.8,210.801
551.004,210.597
551.208,210.379
551.412,210.079
551.615,209.735
551.819,209.509
552.023,209.248
552.226,208.714
552.43,208.198
552.634,207.642
552.837,207.291
553.041,206.612
553.244,206.126
553.448,205.924
553.652,205.569
553.855,205.121
554.059,204.886
554.262,204.562
554.466,204.358
554.669,203.994
554.873,203.731
555.076,203.337
555.28,202.94
555.483,202.489
555.687,201.882
555.89,201.357
556.094,200.779
556.297,200.259
556.5,199.812
556.704,199.255
556.907,199.004
557.111,198.662
557.314,198.112
557.517,197.974
557.721,197.564
557.924,197.264
558.127,196.749
558.33,196.27
558.534,195.984
558.737,195.598
558.94,194.955
559.144,194.651
559.347,194.27
559.55,193.698
559.753,193.274
559.956,192.789
560.159,192.417
560.363,192.429
560.566,192.125
560.769,191.837
560.972,191.326
561.175,190.988
561.378,190.798
561.581,190.23
561.784,189.942
561.987,189.478
562.19,188.912
562.394,188.566
562.597,188.739
562.8,188.268
563.003,187.992
563.205,187.545
563.408,187.347
563.611,187.058
563.814,187.037
564.017,186.896
564.22,186.331
564.423,185.699
564.626,185.438
564.829,185.15
565.032,185.146
565.235,184.618
565.437,184.439
565.64,183.982
565.843,183.907
566.046,183.702
566.249,183.49
566.451,182.979
566.654,182.839
566.857,182.634
567.06,182.314
567.262,182.265
567.465,182.397
567.668,182.327
567.87,181.999
568.073,181.893
568.276,181.503
568.478,181.414
568.681,181.471
568.884,181.246
569.086,181.369
569.289,181.191
569.491,181.331
569.694,181.144
569.896,181.228
570.099,181.405
570.301,181.074
570.504,180.969
570.706,180.767
570.909,180.656
571.111,180.589
571.314,180.842
571.516,180.743
571.719,180.656
571.921,180.592
572.124,180.556
572.326,180.491
572.528,180.498
572.731,180.521
572.933,180.58
573.135,180.835
573.338,180.731
573.54,180.59
573.742,180.553
573.945,180.902
574.147,180.985
574.349,180.968
574.551,180.921
574.754,181.134
574.956,181.347
575.158,181.172
575.36,181.521
575.562,181.779
575.765,181.583
575.967,181.656
576.169,182.081
576.371,182.125
576.573,182.336
576.775,182.145
576.977,182.172
577.179,182.294
577.382,182.176
577.584,182.224
577.786,182.368
577.988,182.708
578.19,182.624
578.392,182.945
578.594,183.179
578.796,182.872
578.998,182.771
579.2,182.846
579.401,183.133
579.603,183.319
579.805,183.332
580.007,183.329
580.209,182.98
580.411,183.573
580.613,183.912
580.815,184.178
581.016,184.33
581.218,184.632
581.42,184.728
581.622,185.085
581.824,185.534
582.025,186.107
582.227,186.457
582.429,186.506
582.631,186.625
582.832,186.946
583.034,187.205
583.236,187.379
