SpectrumFile,BASELINE
Version,1.000000
Location,
Customer,
SampleInfo,
GPSData,51.118491,-114.185425,1143.658447,1107,71211
SystemTime,2011,12,7,0,12,9,140
Pipe km,0.000000
Pre-Dilution Factor,1.000000
Freeform Info,
Concentration,0.000000
CalibrationName,USB4000 dark
Unique Calibration File ID,20110323-0226570968-TESTBOX2-7E963C-00008931
CalibrationWavelength,700.000000
CalibrationType,2,0.000000,0.616679
CalibrationRSquared,1.000000
CalibrationConcentrations [ppm],2,0.000000,10.000000
CalibrationCounts,2,0.000000,16.215900
CalibrationWarnLow,0.000000
CalibrationWarnHigh,10.000000
CalibrationErrorLow,0.000000
CalibrationErrorHigh,0.000000
Spectrometer Name,USB4000
Spectrometer Serial,USB4H02759
IntegrationTime [ms],50.000000
AveragedSpectra,50
BoxcarWidth,100
WavelengthRange [nm],346.775360,1043.690197
IntensityRange [counts],-129.206348,1140.416697
WavelengthCount,3648
Wavelength [nm],Intensity [counts]
346.775,-125.11
346.991,-125.11
347.206,-125.11
347.421,-129.206
347.637,-122.653
347.852,82.9223
348.067,35.2455
348.282,75.5086
348.498,49.6632
348.713,63.057
348.928,82.2669
349.143,84.0282
349.358,29.3884
349.574,58.8791
349.789,31.8869
350.004,115.198
350.219,40.2016
350.434,58.2647
350.649,65.5964
350.864,45.4854
351.079,80.9152
351.295,88.6156
351.51,27.6681
351.725,43.7651
351.94,13.2504
352.155,36.3514
352.37,83.6186
352.585,55.971
352.8,102.501
353.015,20.0496
353.23,86.7724
353.445,26.1526
353.66,40.5703
353.875,72.4367
354.09,103.361
354.305,33.1976
354.52,68.1359
354.735,49.0079
354.949,80.4237
355.164,95.2101
355.379,23.0806
355.594,73.9112
355.809,87.3049
356.024,75.2219
356.239,75.2219
356.453,90.213
356.668,55.7252
356.883,83.9053
357.098,98.1182
357.313,69.4466
357.527,73.8702
357.742,47.2876
357.957,46.7142
358.172,67.1529
358.386,68.8322
358.601,68.9141
358.816,104.795
359.03,51.1378
359.245,61.0909
359.46,117.082
359.674,70.7164
359.889,28.1186
360.104,87.9603
360.318,82.2259
360.533,52.8171
360.748,49.909
360.962,73.9522
361.177,46.837
361.391,69.2828
361.606,59.4935
361.82,73.6654
362.035,76.6555
362.25,54.8241
362.464,51.4655
362.679,122.776
362.893,68.9141
363.108,81.161
363.322,93.8994
363.536,61.0499
363.751,52.94
363.965,60.7223
364.18,75.14
364.394,71.7813
364.609,39.7511
364.823,69.9381
365.037,87.6326
365.252,60.026
365.466,36.3105
365.68,59.3297
365.895,62.4016
366.109,68.5046
366.323,56.6263
366.538,55.0699
366.752,38.9319
366.966,58.5514
367.181,53.1038
367.395,40.9799
367.609,35.9419
367.823,106.843
368.038,78.13
368.252,62.747
368.466,63.6573
368.68,64.7715
368.894,65.6875
369.109,66.4539
369.323,67.5354
369.537,67.3459
369.751,67.472
369.965,67.4855
370.179,67.6063
370.393,67.6456
370.607,67.62
370.822,67.7469
371.036,68.0291
371.25,67.9971
371.464,68.2943
371.678,68.1186
371.892,68.3234
372.106,68.2007
372.32,68.4775
372.534,68.6519
372.748,68.8231
372.962,68.8404
373.176,68.9973
373.39,69.1958
373.604,69.5361
373.818,69.78
374.031,69.6048
374.245,69.6842
374.459,69.5993
374.673,69.7413
374.887,69.7264
375.101,69.95
375.315,70.1507
375.529,70.1706
375.742,70.0074
375.956,70.1364
376.17,70.07
376.384,70.104
376.598,69.8996
376.811,69.7873
377.025,70.2515
377.239,70.4354
377.453,70.5116
377.666,70.5756
377.88,70.4309
378.094,70.7753
378.307,70.9472
378.521,71.0096
378.735,70.7702
378.948,70.7628
379.162,70.7667
379.376,70.9299
379.589,71.3348
379.803,71.3324
380.016,71.1749
380.23,71.3548
380.444,71.3102
380.657,71.3827
380.871,71.4471
381.084,71.2156
381.298,70.9676
381.511,70.9911
381.725,71.2195
381.938,71.3784
382.152,71.486
382.365,71.4673
382.579,71.4257
382.792,71.527
383.006,71.4993
383.219,71.626
383.433,71.6682
383.646,71.7126
383.859,71.6715
384.073,71.786
384.286,71.3363
384.5,71.3142
384.713,71.312
384.926,71.16
385.14,71.4703
385.353,71.5574
385.566,71.6177
385.779,71.558
385.993,71.5728
386.206,71.8054
386.419,71.7242
386.633,71.4636
386.846,71.7218
387.059,71.9317
387.272,72.0381
387.485,72.1927
387.699,72.112
387.912,72.2088
388.125,72.3549
388.338,72.7735
388.551,72.9926
388.764,73.1246
388.978,73.328
389.191,73.3916
389.404,73.3424
389.617,73.1193
389.83,73.0836
390.043,73.1756
390.256,72.9351
390.469,73.1108
390.682,72.9693
390.895,73.0003
391.108,72.8306
391.321,72.8024
391.534,72.4426
391.747,72.4894
391.96,72.0193
392.173,72.1827
392.386,72.5624
392.599,72.7018
392.812,73.0633
393.025,73.0669
393.238,73.0741
393.451,73.0368
393.663,72.8917
393.876,73.1393
394.089,72.9076
394.302,73.0814
394.515,73.0814
394.728,72.9975
394.941,73.0663
395.153,72.8381
395.366,72.768
395.579,72.8705
395.792,72.6732
396.004,72.8418
396.217,72.6842
396.43,72.8312
396.643,73.1819
396.855,72.9975
397.068,73.1065
397.281,73.1959
397.493,73.1556
397.706,73.0945
397.919,73.1279
398.131,73.3225
398.344,73.3017
398.557,73.1733
398.769,72.6902
398.982,72.8295
399.194,72.7617
399.407,72.8972
399.619,72.9712
399.832,73.0515
400.045,73.3025
400.257,73.8975
400.47,74.0447
400.682,74.3416
400.895,74.493
401.107,74.6654
401.319,74.7648
401.532,74.6904
401.744,74.8453
401.957,74.9556
402.169,74.7182
402.382,74.7931
402.594,74.806
402.806,75.1082
403.019,75.3091
403.231,75.195
403.444,75.0656
403.656,75.1471
403.868,75.3474
404.081,75.6025
404.293,75.8379
404.505,75.7538
404.717,75.7181
404.93,76.0079
405.142,75.8414
405.354,76.0431
405.566,76.2608
405.779,76.2781
405.991,76.1898
406.203,76.2985
406.415,76.2363
406.627,76.125
406.84,76.1599
407.052,76.7775
407.264,76.4702
407.476,76.4594
407.688,76.8372
407.9,76.8609
408.112,76.9937
408.324,77.2741
408.537,77.3501
408.749,77.7791
408.961,78.0689
409.173,78.3697
409.385,78.2845
409.597,78.0581
409.809,78.0585
410.021,78.1363
410.233,78.2564
410.445,78.1549
410.657,78.6822
410.869,78.8383
411.081,78.8068
411.292,79.0417
411.504,79.0747
411.716,79.3961
411.928,79.6759
412.14,79.707
412.352,79.8387
412.564,79.9793
412.776,79.9685
412.988,80.0973
413.199,79.9821
413.411,79.9098
413.623,79.8593
413.835,79.8238
414.047,79.952
414.258,80.1841
414.47,80.3681
414.682,80.1992
414.894,80.3363
415.105,80.1005
415.317,80.0076
415.529,79.8114
415.74,79.6579
415.952,79.8087
416.164,79.7818
416.375,79.7525
416.587,79.847
416.799,80.1266
417.01,80.322
417.222,80.4451
417.433,80.8219
417.645,80.7805
417.857,80.8733
418.068,80.9466
418.28,81.083
418.491,81.1168
418.703,81.3841
418.914,81.6861
419.126,82.0735
419.337,82.3829
419.549,82.2765
419.76,82.1715
419.972,82.101
420.183,82.2288
420.394,82.2329
420.606,82.3867
420.817,82.1766
421.029,82.1893
421.24,82.2433
421.451,82.3859
421.663,82.7348
421.874,82.9767
422.085,82.9394
422.297,82.692
422.508,82.9025
422.719,83.4859
422.931,83.4912
423.142,83.5419
423.353,83.866
423.565,84.1398
423.776,84.2957
423.987,84.8948
424.198,85.1176
424.409,84.9083
424.621,84.989
424.832,85.1212
425.043,85.4222
425.254,85.6985
425.465,85.7564
425.676,86.1034
425.888,86.3447
426.099,86.3325
426.31,86.4099
426.521,86.5552
426.732,86.6648
426.943,86.9342
427.154,87.1533
427.365,87.0695
427.576,87.2307
427.787,87.0233
427.998,87.0867
428.209,87.2688
428.42,87.5729
428.631,87.8527
428.842,87.9095
429.053,87.8771
429.264,88.2981
429.475,88.3452
429.686,88.4895
429.897,88.6547
430.108,88.6217
430.319,89.1976
430.529,89.2862
430.74,89.336
430.951,89.5344
431.162,89.595
431.373,89.6412
431.584,89.9019
431.794,90.2562
432.005,90.309
432.216,90.6442
432.427,90.7015
432.637,91.0163
432.848,91.5973
433.059,91.5437
433.27,91.506
433.48,91.8783
433.691,92.1567
433.902,92.6543
434.112,92.6478
434.323,92.8591
434.534,93.2377
434.744,93.3913
434.955,93.2558
435.166,93.267
435.376,93.1908
435.587,93.6302
435.797,93.858
436.008,93.9039
436.218,94.4938
436.429,94.7976
436.64,95.1603
436.85,95.2192
437.061,95.3935
437.271,95.9184
437.482,96.1495
437.692,96.6862
437.902,96.7679
438.113,96.8599
438.323,97.1419
438.534,97.0422
438.744,97.1015
438.955,97.4604
439.165,97.5957
439.375,97.5708
439.586,97.3846
439.796,97.5996
440.006,97.5346
440.217,97.9118
440.427,98.045
440.637,98.0933
440.848,98.023
441.058,98.2504
441.268,98.6712
441.479,98.7472
441.689,99.0523
441.899,99.3103
442.109,99.371
442.319,99.7209
442.53,99.7853
442.74,99.6667
442.95,100.136
443.16,100.19
443.37,100.658
443.58,100.646
443.791,101.182
444.001,101.395
444.211,101.494
444.421,101.871
444.631,102.351
444.841,102.827
445.051,103.025
445.261,102.935
445.471,104.384
445.681,104.85
445.891,105.237
446.101,105.448
446.311,105.651
446.521,105.688
446.731,105.803
446.941,106.118
447.151,106.734
447.361,106.82
447.571,107.008
447.781,107.426
447.991,107.5
448.201,107.868
448.41,108.62
448.62,108.821
448.83,109.125
449.04,109.218
449.25,109.563
449.46,109.55
449.669,109.744
449.879,109.935
450.089,109.943
450.299,110.516
450.508,110.6
450.718,110.822
450.928,110.838
451.138,111.04
451.347,111.35
451.557,111.631
451.767,112
451.976,112.353
452.186,112.887
452.396,112.924
452.605,113.023
452.815,113.502
453.025,113.532
453.234,113.863
453.444,113.999
453.653,114.172
453.863,114.192
454.072,114.24
454.282,114.532
454.491,114.65
454.701,114.963
454.911,115.222
455.12,115.589
455.329,115.801
455.539,116.339
455.748,116.71
455.958,116.801
456.167,117.254
456.377,117.645
456.586,117.645
456.795,117.65
457.005,118.042
457.214,118.688
457.424,118.951
457.633,119.226
457.842,119.598
458.052,120.023
458.261,120.266
458.47,120.609
458.679,120.857
458.889,121.05
459.098,121.31
459.307,121.475
459.517,121.716
459.726,121.863
459.935,122.258
460.144,122.437
460.353,122.597
460.563,122.963
460.772,123.227
460.981,123.54
461.19,123.874
461.399,123.975
461.608,124.257
461.817,124.917
462.026,125.392
462.236,125.76
462.445,126.098
462.654,126.584
462.863,127.01
463.072,127.423
463.281,127.77
463.49,127.991
463.699,128.542
463.908,128.841
464.117,128.88
464.326,129.404
464.535,130.059
464.744,130.508
464.952,130.375
465.161,130.538
465.37,130.92
465.579,130.988
465.788,131.067
465.997,131.472
466.206,131.692
466.415,132.179
466.623,132.73
466.832,132.902
467.041,133.407
467.25,133.789
467.459,134.071
467.667,134.501
467.876,134.984
468.085,135.366
468.294,135.772
468.502,136.138
468.711,136.835
468.92,137.243
469.128,137.965
469.337,138.253
469.546,138.735
469.754,139.26
469.963,139.806
470.172,140.588
470.38,141.035
470.589,141.238
470.798,141.651
471.006,142.004
471.215,142.651
471.423,143.099
471.632,143.441
471.84,143.882
472.049,144.415
472.257,144.871
472.466,145.207
472.674,145.662
472.883,146.271
473.091,146.436
473.3,146.958
473.508,147.458
473.716,147.954
473.925,148.4
474.133,148.858
474.342,149.36
474.55,149.95
474.758,150.535
474.967,150.68
475.175,151.51
475.383,152.347
475.592,152.758
475.8,153.042
476.008,153.275
476.217,153.922
476.425,154.565
476.633,154.782
476.841,155.089
477.05,155.638
477.258,156.429
477.466,156.902
477.674,157.022
477.882,157.535
478.091,158.128
478.299,158.565
478.507,158.971
478.715,159.775
478.923,160.153
479.131,160.879
479.339,161.202
479.547,161.862
479.755,162.363
479.963,162.954
480.171,163.598
480.38,164.037
480.588,164.92
480.796,165.588
481.004,165.622
481.212,166.051
481.42,166.842
481.627,167.816
481.835,168.521
482.043,169.294
482.251,169.833
482.459,170.397
482.667,170.928
482.875,171.535
483.083,172.602
483.291,173.127
483.499,173.831
483.706,174.304
483.914,174.902
484.122,175.459
484.33,176.044
484.538,176.803
484.745,177.33
484.953,177.627
485.161,178.045
485.369,178.61
485.576,179.694
485.784,179.979
485.992,180.799
486.199,181.493
486.407,182.084
486.615,182.606
486.822,183.007
487.03,183.621
487.238,184.203
487.445,183.318
487.653,183.836
487.861,184.523
488.068,184.868
488.276,185.365
488.483,186.085
488.691,186.697
488.898,187.406
489.106,187.639
489.313,188.327
489.521,189.048
489.728,189.335
489.936,190.013
490.143,190.623
490.351,190.864
490.558,191.555
490.766,192.003
490.973,192.698
491.18,193.04
491.388,193.553
491.595,194.359
491.802,195.208
492.01,195.827
492.217,196.093
492.424,196.954
492.632,197.419
492.839,198.357
493.046,198.9
493.254,199.425
493.461,199.847
493.668,200.483
493.875,201.271
494.083,201.358
494.29,202.116
494.497,202.964
494.704,203.273
494.911,203.879
495.119,204.362
495.326,205.15
495.533,205.867
495.74,206.41
495.947,206.846
496.154,207.325
496.361,207.657
496.568,207.931
496.775,208.309
496.982,208.742
497.19,209.398
497.397,209.836
497.604,210.407
497.811,211.028
498.018,211.626
498.225,212.19
498.432,212.716
498.638,213.267
498.845,214.193
499.052,214.488
499.259,215.069
499.466,215.696
499.673,215.946
499.88,216.695
500.087,217.066
500.294,217.568
500.501,218.082
500.707,218.501
500.914,218.869
501.121,219.492
501.328,219.75
501.535,220.574
501.741,221.335
501.948,221.816
502.155,222.62
502.362,222.84
502.568,223.386
502.775,223.936
502.982,224.387
503.188,224.759
503.395,225.167
503.602,225.279
503.808,225.39
504.015,225.697
504.222,225.862
504.428,226.215
504.635,227.066
504.841,227.145
505.048,227.559
505.254,228.04
505.461,228.548
505.668,228.706
505.874,229.382
506.081,229.974
506.287,229.912
506.494,230.015
506.7,230.61
506.907,231.284
507.113,231.61
507.319,232.204
507.526,232.884
507.732,233.456
507.939,233.814
508.145,233.971
508.351,234.139
508.558,234.446
508.764,234.64
508.97,234.808
509.177,235.096
509.383,235.469
509.589,235.601
509.796,235.706
510.002,236.244
510.208,236.429
510.414,236.437
510.621,236.693
510.827,236.751
511.033,237.208
511.239,237.654
511.445,237.826
511.652,238.076
511.858,238.248
512.064,238.447
512.27,238.819
512.476,238.889
512.682,239.296
512.888,239.562
513.095,239.731
513.301,239.933
513.507,240.054
513.713,240.158
513.919,240.574
514.125,240.61
514.331,241.115
514.537,241.349
514.743,241.667
514.949,241.982
515.155,242.33
515.361,242.468
515.567,242.706
515.773,242.892
515.978,243.061
516.184,243.206
516.39,243.095
516.596,243.314
516.802,243.354
517.008,243.335
517.214,243.455
517.419,243.782
517.625,244.124
517.831,244.274
518.037,244.242
518.243,244.657
518.448,245.092
518.654,245.369
518.86,245.462
519.066,245.972
519.271,246.264
519.477,246.457
519.683,246.646
519.888,246.85
520.094,247.01
520.3,246.856
520.505,247.291
520.711,247.496
520.917,247.975
521.122,248.33
521.328,248.388
521.533,248.524
521.739,248.965
521.944,249.166
522.15,249.165
522.356,249.338
522.561,249.763
522.767,249.823
522.972,249.772
523.177,249.861
523.383,250.28
523.588,250.495
523.794,250.405
523.999,250.351
524.205,250.721
524.41,250.911
524.615,250.63
524.821,250.71
525.026,250.714
525.232,250.778
525.437,250.999
525.642,251.203
525.847,251.425
526.053,251.44
526.258,251.569
526.463,251.732
526.669,251.961
526.874,251.802
527.079,251.41
527.284,251.635
527.49,251.556
527.695,251.258
527.9,251.155
528.105,250.971
528.31,250.92
528.515,250.832
528.721,250.969
528.926,250.809
529.131,250.609
529.336,250.656
529.541,250.944
529.746,251.037
529.951,251.016
530.156,251.056
530.361,250.793
530.566,250.849
530.771,250.836
530.976,250.693
531.181,250.767
531.386,250.638
531.591,250.44
531.796,250.524
532.001,250.506
532.206,250.309
532.411,250.238
532.616,250.246
532.821,250.103
533.025,249.766
533.23,249.329
533.435,249.178
533.64,249.014
533.845,248.682
534.05,248.646
534.254,248.365
534.459,248.203
534.664,247.836
534.869,247.961
535.073,247.802
535.278,247.41
535.483,247.338
535.688,247.085
535.892,246.879
536.097,246.818
536.302,246.388
536.506,246.37
536.711,246.263
536.916,245.948
537.12,245.85
537.325,246.055
537.529,245.873
537.734,245.869
537.938,246.593
538.143,246.81
538.348,246.684
538.552,246.238
538.757,246.252
538.961,246.363
539.166,246.238
539.37,246.234
539.575,245.92
539.779,245.621
539.983,245.671
540.188,245.252
540.392,245.015
540.597,244.934
540.801,244.73
541.005,244.622
541.21,244.027
541.414,243.96
541.618,243.825
541.823,243.705
542.027,243.547
542.231,243.545
542.436,243.094
542.64,243.098
542.844,242.441
543.048,241.972
543.253,241.792
543.457,241.281
543.661,241.038
543.865,240.821
544.069,240.375
544.274,240.076
544.478,239.856
544.682,239.891
544.886,239.709
545.09,239.865
545.294,239.638
545.498,239.761
545.702,239.442
545.907,238.789
546.111,238.621
546.315,238.491
546.519,238.294
546.723,237.784
546.927,237.795
547.131,237.596
547.335,237.098
547.539,237.289
547.743,237.229
547.947,237.262
548.15,236.85
548.354,236.624
548.558,236.396
548.762,236.044
548.966,235.496
549.17,235.214
549.374,234.975
549.578,234.671
549.781,234.476
549.985,234.22
550.189,234.269
550.393,234.346
550.597,234.057
550.8,233.728
551.004,233.586
551.208,233.5
551.412,233.418
551.615,233.26
551.819,233.207
552.023,233.059
552.226,232.72
552.43,232.28
552.634,231.864
552.837,231.692
553.041,231.23
553.244,230.964
553.448,230.911
553.652,230.73
553.855,230.49
554.059,230.537
554.262,230.371
554.466,230.296
554.669,230.196
554.873,230.121
555.076,229.963
555.28,229.639
555.483,229.335
555.687,228.943
555.89,228.527
556.094,227.999
556.297,227.646
556.5,227.323
556.704,226.926
556.907,226.791
557.111,226.604
557.314,226.27
557.517,226.217
557.721,226.004
557.924,225.824
558.127,225.45
558.33,225.207
558.534,225.11
558.737,224.75
558.94,224.229
559.144,224.124
559.347,223.917
559.55,223.509
559.753,223.238
559.956,222.794
560.159,222.59
560.363,222.731
560.566,222.566
560.769,222.367
560.972,222.086
561.175,221.916
561.378,221.929
561.581,221.442
561.784,221.342
561.987,221.027
562.19,220.451
562.394,220.23
562.597,220.506
562.8,220.148
563.003,219.874
563.205,219.604
563.408,219.627
563.611,219.578
563.814,219.693
564.017,219.758
564.22,219.419
564.423,219.021
564.626,218.865
564.829,218.768
565.032,218.911
565.235,218.507
565.437,218.473
565.64,218.241
565.843,218.421
566.046,218.382
566.249,218.375
566.451,217.93
566.654,218.024
566.857,218.056
567.06,217.955
567.262,218.102
567.465,218.44
567.668,218.481
567.87,218.312
568.073,218.407
568.276,218.185
568.478,218.278
568.681,218.56
568.884,218.488
569.086,218.832
569.289,218.842
569.491,219.264
569.694,219.28
569.896,219.508
570.099,219.941
570.301,219.846
570.504,219.854
570.706,219.806
570.909,219.844
571.111,220.043
571.314,220.561
571.516,220.725
571.719,220.92
571.921,221.086
572.124,221.365
572.326,221.525
572.528,221.801
572.731,222.09
572.933,222.383
573.135,222.925
573.338,223.12
573.54,223.183
573.742,223.325
573.945,223.892
574.147,224.304
574.349,224.563
574.551,224.769
574.754,225.184
574.956,225.639
575.158,225.621
575.36,226.24
575.562,226.819
575.765,226.857
575.967,227.119
576.169,227.935
576.371,228.23
576.573,228.754
576.775,228.824
576.977,229.054
577.179,229.502
577.382,229.651
577.584,229.943
577.786,230.312
577.988,230.928
578.19,231.045
578.392,231.653
578.594,232.16
578.796,232.06
578.998,232.235
579.2,232.471
579.401,233.046
579.603,233.527
579.805,233.754
580.007,233.97
580.209,233.836
580.411,234.712
580.613,235.435
580.815,235.838
581.016,236.185
581.218,236.748
581.42,237.173
581.622,237.687
581.824,238.469
582.025,239.479
582.227,240.098
582.429,240.358
582.631,240.719
582.832,241.156
583.034,241.638
583.236,242.15
583.437,242.62
583.639,243.309
583.841,243.76
