SpectrumFile,BASELINE
Version,1.000000
Location,
Customer,
SampleInfo,
GPSData,51.118460,-114.185340,1173.000000,8269,230311
SystemTime,2011,3,23,2,29,14,311
Pipe km,0.000000
Pre-Dilution Factor,1.000000
Freeform Info,
Concentration,0.000000
CalibrationName,USB4000 dark
Unique Calibration File ID,20110323-0226570968-TESTBOX2-7E963C-00008931
CalibrationWavelength,700.000000
CalibrationType,2,0.000000,0.616679
CalibrationRSquared,1.000000
CalibrationConcentrations [ppm],2,0.000000,10.000000
CalibrationCounts,2,0.000000,16.215900
CalibrationWarnLow,0.000000
CalibrationWarnHigh,10.000000
CalibrationErrorLow,0.000000
CalibrationErrorHigh,0.000000
Spectrometer Name,USB4000
Spectrometer Serial,USB4H02759
IntegrationTime [ms],50.000000
AveragedSpectra,50
BoxcarWidth,100
WavelengthRange [nm],346.775360,1043.690197
IntensityRange [counts],-13.386206,139.760897
WavelengthCount,3648
Wavelength [nm],Intensity [counts]
346.775,-10.0685
346.991,-10.0685
347.206,-10.0685
347.421,-9.12643
347.637,-13.3862
347.852,95.8524
348.067,90.0772
348.282,97.4089
348.498,97.2041
348.713,87.21
348.928,106.584
349.143,104.618
349.358,68.7373
349.574,80.7794
349.789,78.8133
350.004,121.411
350.219,82.7864
350.434,94.8694
350.649,90.7325
350.864,89.1761
351.079,91.5517
351.295,119.363
351.51,82.9912
351.725,87.9882
351.94,67.6724
352.155,79.7554
352.37,96.9993
352.585,93.5997
352.8,113.629
353.015,63.9041
353.23,105.478
353.445,74.5126
353.66,91.3879
353.875,98.5148
354.09,106.42
354.305,74.144
354.52,95.6886
354.735,75.9871
354.949,106.625
355.164,110.147
355.379,79.0181
355.594,102.037
355.809,109.41
356.024,101.464
356.239,100.563
356.453,105.396
356.668,88.6846
356.883,99.9893
357.098,112.236
357.313,88.7665
357.527,109.287
357.742,83.155
357.957,85.4078
358.172,91.7975
358.386,94.7875
358.601,90.5687
358.816,115.923
359.03,70.6624
359.245,94.1731
359.46,106.133
359.674,98.7606
359.889,71.9322
360.104,114.079
360.318,99.8255
360.533,102.693
360.748,80.0012
360.962,93.1491
361.177,88.7255
361.391,109.574
361.606,82.5406
361.82,98.9244
362.035,99.8665
362.25,76.11
362.464,100.317
362.679,126.244
362.893,89.8314
363.108,101.546
363.322,106.256
363.536,92.8624
363.751,94.6237
363.965,85.244
364.18,91.4288
364.394,100.931
364.609,82.7045
364.823,91.1831
365.037,105.806
365.252,86.186
365.466,80.8204
365.68,95.0742
365.895,87.8654
366.109,99.4569
366.323,92.9443
366.538,96.9993
366.752,73.4067
366.966,82.213
367.181,81.148
367.395,83.8513
367.609,79.1001
367.823,110.106
368.038,109.041
368.252,92.4732
368.466,92.9515
368.68,93.5216
368.894,93.9516
369.109,94.4187
369.323,95.0324
369.537,94.9864
369.751,94.9748
369.965,95.0055
370.179,94.9546
370.393,94.997
370.607,94.9035
370.822,94.9837
371.036,95.1708
371.25,95.1969
371.464,95.2423
371.678,95.14
371.892,95.1918
372.106,95.1268
372.32,95.3518
372.534,95.3607
372.748,95.4592
372.962,95.3856
373.176,95.4286
373.39,95.5056
373.604,95.6819
373.818,95.741
374.031,95.6668
374.245,95.7049
374.459,95.6509
374.673,95.7308
374.887,95.751
375.101,95.8836
375.315,95.9743
375.529,95.9725
375.742,95.8694
375.956,95.8708
376.17,95.8217
376.384,95.9028
376.598,95.8125
376.811,95.7508
377.025,95.9429
377.239,96.0466
377.453,96.065
377.666,96.086
377.88,96.0126
378.094,96.218
378.307,96.2563
378.521,96.2985
378.735,96.1326
378.948,96.2025
379.162,96.163
379.376,96.2168
379.589,96.3823
379.803,96.3662
380.016,96.2553
380.23,96.4173
380.444,96.337
380.657,96.4552
380.871,96.4923
381.084,96.4357
381.298,96.3116
381.511,96.2857
381.725,96.3676
381.938,96.4546
382.152,96.3546
382.365,96.4224
382.579,96.4212
382.792,96.4497
383.006,96.3101
383.219,96.3912
383.433,96.3931
383.646,96.3978
383.859,96.4065
384.073,96.4312
384.286,96.1913
384.5,96.1871
384.713,96.1787
384.926,96.1587
385.14,96.3238
385.353,96.2847
385.566,96.3454
385.779,96.3513
385.993,96.3077
386.206,96.4118
386.419,96.344
386.633,96.2519
386.846,96.4096
387.059,96.4935
387.272,96.4569
387.485,96.5777
387.699,96.4966
387.912,96.6225
388.125,96.618
388.338,96.834
388.551,96.9673
388.764,97.0013
388.978,97.0415
389.191,97.0472
389.404,97.0602
389.617,96.9514
389.83,96.8198
390.043,96.8495
390.256,96.7513
390.469,96.9257
390.682,96.811
390.895,96.7703
391.108,96.571
391.321,96.4962
391.534,96.2588
391.747,96.2847
391.96,95.9425
392.173,96.022
392.386,96.2009
392.599,96.2504
392.812,96.4536
393.025,96.5082
393.238,96.4397
393.451,96.454
393.663,96.3427
393.876,96.551
394.089,96.3813
394.302,96.5687
394.515,96.5441
394.728,96.4752
394.941,96.4785
395.153,96.355
395.366,96.3136
395.579,96.3672
395.792,96.1681
396.004,96.272
396.217,96.2928
396.43,96.3762
396.643,96.4921
396.855,96.3647
397.068,96.4831
397.281,96.4273
397.493,96.3289
397.706,96.279
397.919,96.2298
398.131,96.3132
398.344,96.2757
398.557,96.1999
398.769,95.9146
398.982,95.991
399.194,95.9427
399.407,96.0703
399.619,96.1744
399.832,96.2068
400.045,96.2474
400.257,96.5465
400.47,96.5744
400.682,96.7511
400.895,96.8218
401.107,96.7937
401.319,96.8369
401.532,96.776
401.744,96.7727
401.957,96.7764
402.169,96.5347
402.382,96.6099
402.594,96.661
402.806,96.7986
403.019,96.9378
403.231,96.8294
403.444,96.7273
403.656,96.6918
403.868,96.8096
404.081,96.9402
404.293,97.0144
404.505,96.8868
404.717,96.7468
404.93,96.8603
405.142,96.7375
405.354,96.8312
405.566,96.8872
405.779,96.9025
405.991,96.8467
406.203,96.8728
406.415,96.8092
406.627,96.7609
406.84,96.7574
407.052,96.9867
407.264,96.7283
407.476,96.7016
407.688,96.8722
407.9,96.8654
408.112,96.9993
408.324,97.1727
408.537,97.1397
408.749,97.391
408.961,97.447
409.173,97.5043
409.385,97.4026
409.597,97.1591
409.809,97.1057
410.021,97.1267
410.233,97.1752
410.445,97.0749
410.657,97.2899
410.869,97.3871
411.081,97.3977
411.292,97.5454
411.504,97.5683
411.716,97.759
411.928,97.8173
412.14,97.8171
412.352,97.8415
412.564,97.88
412.776,97.8749
412.988,97.9591
413.199,97.8444
413.411,97.8499
413.623,97.728
413.835,97.673
414.047,97.7199
414.258,97.877
414.47,97.9027
414.682,97.7649
414.894,97.8063
415.105,97.5815
415.317,97.5204
415.529,97.4576
415.74,97.3518
415.952,97.4285
416.164,97.3592
416.375,97.3178
416.587,97.3608
416.799,97.4303
417.01,97.36
417.222,97.3749
417.433,97.5202
417.645,97.382
417.857,97.3164
418.068,97.2078
418.28,97.1982
418.491,97.2571
418.703,97.4226
418.914,97.5377
419.126,97.6418
419.337,97.7119
419.549,97.589
419.76,97.4224
419.972,97.3229
420.183,97.3268
420.394,97.2235
420.606,97.2335
420.817,96.9679
421.029,96.9119
421.24,96.8267
421.451,96.8609
421.663,96.9129
421.874,96.9924
422.085,96.917
422.297,96.7313
422.508,96.7796
422.719,97.0725
422.931,96.9337
423.142,96.9793
423.353,96.9891
423.565,97.0452
423.776,97.0073
423.987,97.2518
424.198,97.336
424.409,97.1091
424.621,97.093
424.832,97.1742
425.043,97.1564
425.254,97.2606
425.465,97.219
425.676,97.3773
425.888,97.4739
426.099,97.4089
426.31,97.3635
426.521,97.4024
426.732,97.3571
426.943,97.4205
427.154,97.456
427.365,97.3628
427.576,97.3133
427.787,97.1132
427.998,97.0321
428.209,97.0382
428.42,97.1065
428.631,97.1878
428.842,97.0784
429.053,97.0193
429.264,97.1122
429.475,97.0344
429.686,97.0215
429.897,97.058
430.108,96.9512
430.319,97.1725
430.529,97.0405
430.74,97.0172
430.951,97.0472
431.162,96.971
431.373,96.9606
431.584,97.0849
431.794,97.1972
432.005,97.1199
432.216,97.153
432.427,97.1464
432.637,97.2121
432.848,97.4272
433.059,97.2483
433.27,97.1061
433.48,97.2911
433.691,97.4407
433.902,97.6229
434.112,97.6111
434.323,97.5731
434.534,97.7602
434.744,97.7784
434.955,97.5603
435.166,97.4268
435.376,97.359
435.587,97.4631
435.797,97.4458
436.008,97.2891
436.218,97.545
436.429,97.4949
436.64,97.5803
436.85,97.4028
437.061,97.3957
437.271,97.5878
437.482,97.5575
437.692,97.7341
437.902,97.6687
438.113,97.6123
438.323,97.6461
438.534,97.4986
438.744,97.3806
438.955,97.4633
439.165,97.4594
439.375,97.3423
439.586,97.1334
439.796,97.155
440.006,97.1528
440.217,97.2791
440.427,97.3233
440.637,97.2302
440.848,97.0867
441.058,97.0935
441.268,97.1976
441.479,97.1485
441.689,97.2229
441.899,97.2813
442.109,97.1534
442.319,97.2424
442.53,97.1746
442.74,96.9924
442.95,97.1104
443.16,97.0028
443.37,97.1301
443.58,97.0505
443.791,97.1923
444.001,97.132
444.211,97.1114
444.421,97.1792
444.631,97.4213
444.841,97.5106
445.051,97.3967
445.261,97.2742
445.471,97.1921
445.681,97.3182
445.891,97.3963
446.101,97.424
446.311,97.4154
446.521,97.2373
446.731,97.1827
446.941,97.3003
447.151,97.5432
447.361,97.4215
447.571,97.3457
447.781,97.4289
447.991,97.3973
448.201,97.4217
448.41,97.7036
448.62,97.7034
448.83,97.7857
449.04,97.694
449.25,97.8018
449.46,97.7486
449.669,97.7688
449.879,97.738
450.089,97.5862
450.299,97.7539
450.508,97.6779
450.718,97.6622
450.928,97.5065
451.138,97.4482
451.347,97.5945
451.557,97.6769
451.767,97.7323
451.976,97.8395
452.186,97.9538
452.396,97.7816
452.605,97.6956
452.815,97.8356
453.025,97.6744
453.234,97.7138
453.444,97.694
453.653,97.6157
453.863,97.4688
454.072,97.3343
454.282,97.3231
454.491,97.201
454.701,97.2467
454.911,97.2235
455.12,97.2027
455.329,97.1517
455.539,97.2944
455.748,97.2716
455.958,97.2212
456.167,97.2491
456.377,97.336
456.586,97.1811
456.795,97.1106
457.005,97.1805
457.214,97.3011
457.424,97.306
457.633,97.3987
457.842,97.4162
458.052,97.5018
458.261,97.3981
458.47,97.3836
458.679,97.3761
458.889,97.2864
459.098,97.2754
459.307,97.3217
459.517,97.239
459.726,97.1544
459.935,97.218
460.144,97.2343
460.353,97.2033
460.563,97.2652
460.772,97.233
460.981,97.2567
461.19,97.2532
461.399,97.1882
461.608,97.1452
461.817,97.3474
462.026,97.4888
462.236,97.491
462.445,97.4346
462.654,97.5636
462.863,97.6532
463.072,97.7274
463.281,97.7354
463.49,97.7009
463.699,97.7708
463.908,97.8042
464.117,97.6011
464.326,97.683
464.535,97.8648
464.744,97.9006
464.952,97.6286
465.161,97.556
465.37,97.4843
465.579,97.4411
465.788,97.306
465.997,97.4423
466.206,97.3321
466.415,97.3728
466.623,97.4456
466.832,97.3502
467.041,97.426
467.25,97.4827
467.459,97.3571
467.667,97.3971
467.876,97.4484
468.085,97.4344
468.294,97.391
468.502,97.4136
468.711,97.5697
468.92,97.5738
469.128,97.6616
469.337,97.5954
469.546,97.6227
469.754,97.7058
469.963,97.8152
470.172,98.0622
470.38,98.0528
470.589,97.9122
470.798,97.8959
471.006,97.8535
471.215,97.9579
471.423,97.9463
471.632,97.9157
471.84,97.8898
472.049,97.963
472.257,97.9662
472.466,97.8535
472.674,97.8719
472.883,97.901
473.091,97.7453
473.3,97.7629
473.508,97.7902
473.716,97.8136
473.925,97.7979
474.133,97.8324
474.342,97.8525
474.55,97.8513
474.758,97.9766
474.967,97.7523
475.175,97.9306
475.383,98.1401
475.592,98.0213
475.8,97.8197
476.008,97.7311
476.217,97.7158
476.425,97.8313
476.633,97.6449
476.841,97.5222
477.05,97.5212
477.258,97.6968
477.466,97.5846
477.674,97.352
477.882,97.4596
478.091,97.4878
478.299,97.4065
478.507,97.3443
478.715,97.4817
478.923,97.3875
479.131,97.5251
479.339,97.4193
479.547,97.5599
479.755,97.5438
479.963,97.6072
480.171,97.696
480.38,97.6781
480.588,97.823
480.796,97.8495
481.004,97.608
481.212,97.5269
481.42,97.6889
481.627,97.8723
481.835,97.9257
482.043,97.9324
482.251,97.9022
482.459,97.8454
482.667,97.8138
482.875,97.8207
483.083,98.0496
483.291,98.0096
483.499,98.0583
483.706,98.0001
483.914,97.9377
484.122,97.8859
484.33,97.8862
484.538,97.9823
484.745,97.9887
484.953,97.8283
485.161,97.7144
485.369,97.6895
485.576,97.9752
485.784,97.8637
485.992,97.986
486.199,97.9882
486.407,97.9738
486.615,97.8978
486.822,97.7993
487.03,97.8658
487.238,97.8652
487.445,97.768
487.653,97.7453
487.861,97.8256
488.068,97.6834
488.276,97.6237
488.483,97.728
488.691,97.7908
488.898,97.8317
489.106,97.6498
489.313,97.7561
489.521,97.8731
489.728,97.7549
489.936,97.748
490.143,97.7533
490.351,97.6406
490.558,97.7223
490.766,97.5499
490.973,97.6318
491.18,97.4517
491.388,97.3781
491.595,97.4399
491.802,97.5676
492.01,97.6237
492.217,97.5079
492.424,97.5911
492.632,97.6216
492.839,97.8845
493.046,97.8778
493.254,97.801
493.461,97.6879
493.668,97.7582
493.875,97.8951
494.083,97.6435
494.29,97.7651
494.497,97.8902
494.704,97.8232
494.911,97.8595
495.119,97.7971
495.326,97.866
495.533,97.9025
495.74,97.9393
495.947,97.9615
496.154,97.9204
496.361,97.8456
496.568,97.6318
496.775,97.5487
496.982,97.456
497.19,97.5524
497.397,97.5257
497.604,97.6082
497.811,97.6659
498.018,97.8167
498.225,97.8273
498.432,97.8688
498.638,97.8297
498.845,98.0838
499.052,98.0027
499.259,97.9791
499.466,97.9671
499.673,97.8607
499.88,97.9734
500.087,97.9801
500.294,98.072
500.501,98.0616
500.707,98.1013
500.914,98.0716
501.121,98.1111
501.328,98.0496
501.535,98.2134
501.741,98.4119
501.948,98.3681
502.155,98.5124
502.362,98.405
502.568,98.4268
502.775,98.4987
502.982,98.506
503.188,98.4498
503.395,98.4531
503.602,98.192
503.808,98.0355
504.015,98.0074
504.222,97.9216
504.428,97.8493
504.635,98.0031
504.841,97.8446
505.048,97.9167
505.254,97.9463
505.461,98.0604
505.668,97.9112
505.874,98.0486
506.081,98.1737
506.287,97.902
506.494,97.782
506.7,97.9202
506.907,98.1119
507.113,98.1645
507.319,98.215
507.526,98.3599
507.732,98.4335
507.939,98.4806
508.145,98.4359
508.351,98.3834
508.558,98.3231
508.764,98.2307
508.97,98.0706
509.177,98.1301
509.383,98.1319
509.589,98.0406
509.796,97.8588
510.002,98.0372
510.208,97.9542
510.414,97.791
510.621,97.7786
510.827,97.714
511.033,97.7963
511.239,97.826
511.445,97.7427
511.652,97.6534
511.858,97.6245
512.064,97.6304
512.27,97.6944
512.476,97.5895
512.682,97.739
512.888,97.7404
513.095,97.6653
513.301,97.674
513.507,97.6805
513.713,97.6318
513.919,97.6844
514.125,97.609
514.331,97.717
514.537,97.7211
514.743,97.749
514.949,97.8087
515.155,97.854
515.361,97.7419
515.567,97.7834
515.773,97.695
515.978,97.6869
516.184,97.7074
516.39,97.4764
516.596,97.4437
516.802,97.3533
517.008,97.164
517.214,97.1183
517.419,97.2703
517.625,97.2828
517.831,97.361
518.037,97.1874
518.243,97.2883
518.448,97.402
518.654,97.4656
518.86,97.4211
519.066,97.5674
519.271,97.6728
519.477,97.6135
519.683,97.6129
519.888,97.6384
520.094,97.6261
520.3,97.5088
520.505,97.6593
520.711,97.6793
520.917,97.8258
521.122,97.9008
521.328,97.8048
521.533,97.7256
521.739,97.8635
521.944,97.8731
522.15,97.8332
522.356,97.8482
522.561,97.9717
522.767,97.9139
522.972,97.7494
523.177,97.7541
523.383,97.9575
523.588,97.9787
523.794,97.8727
523.999,97.7671
524.205,97.9053
524.41,97.988
524.615,97.7808
524.821,97.8187
525.026,97.8377
525.232,97.8089
525.437,97.9012
525.642,97.9615
525.847,98.0052
526.053,97.9695
526.258,97.9538
526.463,98.027
526.669,98.103
526.874,97.954
527.079,97.7072
527.284,97.7908
527.49,97.8415
527.695,97.7162
527.9,97.6632
528.105,97.5412
528.31,97.5018
528.515,97.5124
528.721,97.5762
528.926,97.5
529.131,97.4087
529.336,97.5104
529.541,97.6561
529.746,97.6887
529.951,97.6911
530.156,97.7244
530.361,97.6269
530.566,97.66
530.771,97.6553
530.976,97.6206
531.181,97.6473
531.386,97.661
531.591,97.6125
531.796,97.6261
532.001,97.606
532.206,97.5903
532.411,97.5719
532.616,97.6563
532.821,97.5958
533.025,97.4982
533.23,97.3518
533.435,97.3374
533.64,97.2339
533.845,97.1387
534.05,97.1487
534.254,97.036
534.459,96.9563
534.664,96.8801
534.869,97.0647
535.073,96.9789
535.278,96.8145
535.483,96.8381
535.688,96.7556
535.892,96.7273
536.097,96.6753
536.302,96.5076
536.506,96.6352
536.711,96.6297
536.916,96.5331
537.12,96.5331
537.325,96.6629
537.529,96.7024
537.734,96.668
537.938,97.1815
538.143,97.3914
538.348,97.4764
538.552,97.2968
538.757,97.3932
538.961,97.5336
539.166,97.5381
539.37,97.535
539.575,97.4374
539.779,97.401
539.983,97.5365
540.188,97.3959
540.392,97.2921
540.597,97.3861
540.801,97.3449
541.005,97.305
541.21,97.1517
541.414,97.1693
541.618,97.134
541.823,97.1041
542.027,97.0749
542.231,97.1666
542.436,97.0788
542.64,97.1902
542.844,96.9818
543.048,96.8228
543.253,96.8605
543.457,96.7244
543.661,96.6464
543.865,96.636
544.069,96.4499
544.274,96.4552
544.478,96.3904
544.682,96.4471
544.886,96.5182
545.09,96.6751
545.294,96.6417
545.498,96.7682
545.702,96.7474
545.907,96.4884
546.111,96.5412
546.315,96.5119
546.519,96.5443
546.723,96.3853
546.927,96.488
547.131,96.5282
547.335,96.4173
547.539,96.637
547.743,96.7466
547.947,96.7998
548.15,96.6227
548.354,96.5893
548.558,96.6317
548.762,96.5408
548.966,96.3448
549.17,96.2999
549.374,96.2529
549.578,96.173
549.781,96.2447
549.985,96.2408
550.189,96.4534
550.393,96.5367
550.597,96.4774
550.8,96.3847
551.004,96.4316
551.208,96.5355
551.412,96.5993
551.615,96.6121
551.819,96.66
552.023,96.6855
552.226,96.5779
552.43,96.5049
552.634,96.3419
552.837,96.4216
553.041,96.3162
553.244,96.2376
553.448,96.3401
553.652,96.4259
553.855,96.3305
554.059,96.4587
554.262,96.4465
554.466,96.4365
554.669,96.4467
554.873,96.4842
555.076,96.5288
555.28,96.5017
555.483,96.4
555.687,96.3344
555.89,96.2339
556.094,96.0544
556.297,96.0399
556.5,95.9904
556.704,95.8119
556.907,95.8209
557.111,95.7561
557.314,95.6165
557.517,95.7689
557.721,95.8035
557.924,95.8857
558.127,95.819
558.33,95.8166
558.534,95.7732
558.737,95.709
558.94,95.5005
559.144,95.5619
559.347,95.5621
559.55,95.4392
559.753,95.399
559.956,95.2588
560.159,95.1938
560.363,95.3304
560.566,95.2705
560.769,95.2625
560.972,95.1447
561.175,95.1692
561.378,95.2336
561.581,95.051
561.784,95.0184
561.987,94.9083
562.19,94.6614
562.394,94.6624
562.597,94.9228
562.8,94.7669
563.003,94.7064
563.205,94.6068
563.408,94.6237
563.611,94.6176
563.814,94.7164
564.017,94.9041
564.22,94.7555
564.423,94.544
564.626,94.5322
564.829,94.6231
565.032,94.7441
565.235,94.597
565.437,94.5493
565.64,94.4965
565.843,94.6365
566.046,94.5929
566.249,94.5927
566.451,94.3742
566.654,94.4093
566.857,94.4468
567.06,94.3767
567.262,94.4916
567.465,94.6909
567.668,94.6995
567.87,94.6125
568.073,94.5601
568.276,94.4841
568.478,94.4468
568.681,94.5193
568.884,94.4517
569.086,94.5772
569.289,94.5733
569.491,94.6017
569.694,94.553
569.896,94.6447
570.099,94.8028
570.301,94.6155
570.504,94.5314
570.706,94.4032
570.909,94.3467
571.111,94.2825
571.314,94.4611
571.516,94.4617
571.719,94.4735
571.921,94.4509
572.124,94.4111
572.326,94.3074
572.528,94.3555
572.731,94.3677
572.933,94.3946
573.135,94.5148
573.338,94.4822
573.54,94.3547
573.742,94.2956
573.945,94.4488
574.147,94.4894
574.349,94.4763
574.551,94.4576
574.754,94.5259
574.956,94.6035
575.158,94.4498
575.36,94.676
575.562,94.7239
575.765,94.4647
575.967,94.446
576.169,94.6683
576.371,94.6453
576.573,94.77
576.775,94.5786
576.977,94.5605
577.179,94.6504
577.382,94.5051
577.584,94.5878
577.786,94.5998
577.988,94.7547
578.19,94.5841
578.392,94.6292
578.594,94.7694
578.796,94.4771
578.998,94.3724
579.2,94.2214
579.401,94.3351
579.603,94.328
579.805,94.2271
580.007,94.1134
580.209,93.8491
580.411,93.8931
580.613,93.9412
580.815,93.9496
581.016,93.9188
581.218,94.0486
581.42,94.003
581.622,94.0702
581.824,94.2261
582.025,94.4478
582.227,94.5511
582.429,94.4765
582.631,94.3938
582.832,94.4286
583.034,94.459
583.236,94.4704
583.437,94.4272
583.639,94.5275
