CalFile
Version,1.000000
Unique File ID,20100215-0749540571-RUDIK-00014012
Requires Spectrometer iString,fffdecdedadada,fffdecdeegdadfdjdcda
Calibration Wavelength [nm],500.000000
Calibration Integration Time [ms],50.000000
Calibration Spectra To Average,50
Calibration Boxcar Width,100
Substance,solid 7
Calibration Points Wavelength [nm],0,10,10
Calibration Points Intensity [counts],0,2832.66,2656.43
Calibration Points Intensity (raw) [counts],43.9455,2876.61,2700.37
Calibration Points Baseline [counts],618475291
Calibration Type,2
Calibration Parameters,0.0205538,0.00363236
Calibration Rsquare,0.996917
Conc. Threshold Low Warning [ppm],0.000000
Conc. Threshold High Warning [ppm],10.000000
Conc. Threshold Low Error [ppm],1.000000
Conc. Threshold High Error [ppm],12.000000
SpectrumFile,
Version,1.000000
Location,
Customer,
SampleInfo,
GPSData,255.000000,255.000000,36000000.000000,65535,65535
SystemTime,2010,2,9,4,46,40,994
Pipe km,0.000000
Pre-Dilution Factor,1.000000
Freeform Info,
Concentration,0.000000
CalibrationName,solid 7
CalibrationWavelength,500.000000
CalibrationType,2,0.020554,0.003632
CalibrationRSquared,0.996917
CalibrationConcentrations [ppm],3,0.000000,10.000000,10.000000
CalibrationCounts,3,0.000000,2832.664500,2656.425558
CalibrationWarnLow,0.000000
CalibrationWarnHigh,10.000000
CalibrationErrorLow,1.000000
CalibrationErrorHigh,12.000000
Spectrometer Name,USB4000
Spectrometer Serial,USB4F05920
IntegrationTime [ms],0.000000
WavelengthRange [nm],346.021578,1044.988724
IntensityRange [counts],-62.194535,84.808661
WavelengthCount,3648
Wavelength [nm],Intensity [counts]
346.022,-51.9547
346.239,-51.9547
346.457,-51.9547
346.675,-62.1945
346.892,-53.2654
347.11,39.4257
347.328,12.6382
347.545,9.1567
347.763,36.6404
347.981,50.3618
348.198,12.7611
348.416,47.3308
348.634,63.7146
348.851,26.0729
349.069,8.99286
349.286,27.7113
349.504,31.4386
349.721,35.7393
349.939,12.2286
350.156,51.5906
350.374,34.8792
350.591,14.0718
350.809,6.24858
351.026,43.5216
351.244,39.9991
351.461,7.35448
351.679,63.5917
351.896,52.246
352.114,42.2519
352.331,21.1988
352.548,30.4146
352.766,10.1807
352.983,43.8493
353.2,19.8471
353.418,57.3249
353.635,36.1489
353.852,8.46039
354.07,24.2297
354.287,19.5194
354.504,21.6083
354.721,18.2906
354.939,29.4725
355.156,38.2788
355.373,43.7264
355.59,36.8452
355.808,36.6404
356.025,31.2748
356.242,43.1939
356.459,52.9423
356.676,30.4146
356.893,43.8493
357.11,34.06
357.328,46.1021
357.545,24.8032
357.762,18.1678
357.979,37.6235
358.196,28.3666
358.413,27.7523
358.63,31.4386
358.847,22.8371
359.064,37.0091
359.281,69.8175
359.498,5.59323
359.715,33.5275
359.932,36.5176
360.149,26.5235
360.366,11.7371
360.583,39.6305
360.8,44.0131
361.016,43.8902
361.233,60.9293
361.45,36.7224
361.667,17.2667
361.884,28.1209
362.101,36.5176
362.318,31.9301
362.534,75.0603
362.751,45.5286
362.968,32.7493
363.185,37.9921
363.401,25.2537
363.618,21.4855
363.835,5.38843
364.052,24.4345
364.268,21.8541
364.485,8.29655
364.702,24.5574
364.918,11.7781
365.135,42.8663
365.352,49.215
365.568,21.3216
365.785,7.92791
366.002,51.222
366.218,49.8703
366.435,8.7471
366.651,57.8984
366.868,43.6445
367.084,15.1777
367.301,66.7046
367.517,38.074
367.734,30.5505
367.95,30.9777
368.167,31.3872
368.383,31.7706
368.6,32.2252
368.816,32.7206
369.033,32.7059
369.249,32.8239
369.466,32.9195
369.682,32.8964
369.898,32.7727
370.115,32.8404
370.331,32.896
370.547,32.6841
370.764,32.8357
370.98,32.873
371.196,33.0725
371.413,32.9977
371.629,33.1899
371.845,33.2086
372.061,33.1336
372.278,33.1974
372.494,33.4159
372.71,33.5098
372.926,33.5899
373.143,33.6282
373.359,33.8548
373.575,33.7148
373.791,33.5701
374.007,33.4173
374.223,33.4238
374.439,33.6035
374.656,33.7301
374.872,33.7835
375.088,33.9057
375.304,33.7682
375.52,33.7392
375.736,33.9724
375.952,34.1462
376.168,34.5527
376.384,34.7746
376.6,34.7294
376.816,34.6607
377.032,34.6118
377.248,34.673
377.464,34.6754
377.68,34.75
377.896,34.7683
378.112,34.792
378.327,34.7076
378.543,34.7643
378.759,34.6793
378.975,34.7555
379.191,34.556
379.407,34.6489
379.623,34.7541
379.838,34.7113
380.054,34.6944
380.27,34.6838
380.486,34.6872
380.701,34.7194
380.917,34.5747
381.133,34.5201
381.349,34.7005
381.564,34.6587
381.78,34.483
381.996,34.4262
382.211,34.6891
382.427,34.4439
382.643,34.2998
382.858,34.4423
383.074,34.353
383.289,34.2628
383.505,34.4001
383.721,34.5794
383.936,34.5815
384.152,34.535
384.367,34.1637
384.583,34.1148
384.798,34.0883
385.014,34.0724
385.229,34.0429
385.445,34.1012
385.66,34.1179
385.876,34.1309
386.091,34.137
386.307,34.4199
386.522,34.515
386.737,34.6346
386.953,34.5564
387.168,34.7363
387.384,34.8072
387.599,35.0756
387.814,34.8617
388.03,34.8904
388.245,35.1361
388.46,35.1512
388.675,35.3911
388.891,35.5714
389.106,35.429
389.321,35.4015
389.536,35.3654
389.752,35.4746
389.967,35.6745
390.182,35.7124
390.397,35.6727
390.612,35.9272
390.828,36.0014
391.043,36.1791
391.258,36.3117
391.473,36.5335
391.688,36.5445
391.903,36.781
392.118,36.7971
392.333,36.9353
392.548,36.8886
392.763,36.8432
392.978,36.8573
393.194,37.0722
393.409,37.2699
393.624,37.3714
393.838,37.3594
394.053,37.5515
394.268,37.7789
394.483,37.7757
394.698,37.9238
394.913,38.1594
395.128,38.1995
395.343,38.3954
395.558,38.3259
395.773,38.5346
395.988,38.7267
396.202,38.9056
396.417,38.7758
396.632,39.1017
396.847,39.2908
397.062,39.4509
397.276,39.5905
397.491,39.8224
397.706,39.6219
397.921,39.7236
398.135,39.7743
398.35,40.0176
398.565,40.3578
398.78,40.5053
398.994,40.5821
399.209,40.6608
399.424,40.8429
399.638,41.2036
399.853,41.0422
400.067,40.9762
400.282,41.1902
400.497,41.4231
400.711,41.4584
400.926,41.5871
401.14,41.7561
401.355,41.9319
401.569,41.8673
401.784,41.8889
401.998,41.9906
402.213,41.97
402.427,41.9242
402.642,41.8673
402.856,42.1202
403.071,42.5533
403.285,42.4823
403.499,42.4218
403.714,42.3187
403.928,42.7002
404.143,42.8055
404.357,42.9482
404.571,42.9017
404.786,43.0274
405,43.0175
405.214,43.1424
405.429,43.2253
405.643,43.3134
405.857,43.2773
406.071,43.5344
406.286,43.8004
406.5,44.2218
406.714,44.3223
406.928,44.516
407.142,44.6862
407.357,44.6937
407.571,44.7219
407.785,44.8409
407.999,45.228
408.213,45.5643
408.427,45.6613
408.641,46.0275
408.856,46.0364
409.07,46.2086
409.284,46.5656
409.498,46.5422
409.712,46.4705
409.926,46.6258
410.14,46.7224
410.354,46.798
410.568,46.9814
410.782,46.974
410.996,47.3883
411.21,47.5377
411.424,47.5986
411.638,47.7657
411.851,48.1117
412.065,48.0873
412.279,48.2713
412.493,48.3862
412.707,48.4388
412.921,48.6391
413.135,48.8076
413.348,49.0752
413.562,49.0407
413.776,49.2506
413.99,49.0917
414.204,49.4159
414.417,49.3941
414.631,49.4795
414.845,49.4251
415.059,49.6887
415.272,49.7165
415.486,49.7572
415.7,49.6513
415.913,49.7703
416.127,49.6517
416.341,49.6233
416.554,49.6822
416.768,49.8094
416.981,50.0317
417.195,50.3272
417.409,50.5226
417.622,50.4739
417.836,50.762
418.049,50.7828
418.263,50.6459
418.476,50.9361
418.69,51.0239
418.903,50.9591
419.117,50.9
419.33,50.6816
419.544,50.6628
419.757,50.999
419.97,51.2711
420.184,51.2397
420.397,51.1203
420.611,51.1645
420.824,51.2495
421.037,51.3862
421.251,51.2199
421.464,51.3096
421.677,51.4031
421.891,51.5044
422.104,51.4895
422.317,51.6898
422.53,51.5613
422.744,51.6367
422.957,51.7278
423.17,51.786
423.383,52.0069
423.597,51.9766
423.81,52.1045
424.023,52.2979
424.236,52.161
424.449,52.2672
424.662,52.4935
424.876,52.7921
425.089,52.9842
425.302,52.9757
425.515,53.1707
425.728,53.3246
425.941,53.2549
426.154,53.1656
426.367,53.3329
426.58,53.411
426.793,53.4205
427.006,53.3867
427.219,53.542
427.432,53.7771
427.645,53.8295
427.858,54.0174
428.071,53.9838
428.284,54.117
428.497,53.9856
428.71,54.3351
428.922,54.4822
429.135,54.7041
429.348,54.5444
429.561,54.5843
429.774,54.782
429.987,54.7422
430.199,54.3145
430.412,54.4843
430.625,54.2212
430.838,54.33
431.05,54.2501
431.263,54.4172
431.476,54.319
431.689,54.1268
431.901,53.8674
432.114,53.9864
432.327,53.9316
432.539,53.9673
432.752,53.717
432.965,53.6435
433.177,53.803
433.39,53.8334
433.602,53.6431
433.815,53.674
434.028,53.6812
434.24,53.3967
434.453,53.3072
434.665,53.3258
434.878,53.3926
435.09,53.3953
435.303,53.3669
435.515,53.4588
435.728,53.6045
435.94,53.5848
436.152,53.5642
436.365,53.5848
436.577,53.4269
436.79,53.5106
437.002,53.4472
437.214,53.3975
437.427,53.5045
437.639,53.5334
437.851,53.6748
438.064,53.8348
438.276,53.8823
438.488,54.0728
438.701,53.8377
438.913,53.8409
439.125,53.6272
439.337,53.9809
439.55,53.791
439.762,53.62
439.974,53.5997
440.186,53.6832
440.398,53.4963
440.611,53.5497
440.823,53.3368
441.035,53.4383
441.247,53.2221
441.459,52.8445
441.671,52.7326
441.883,52.5174
442.095,52.5669
442.307,52.5498
442.519,52.313
442.731,52.3676
442.944,52.3715
443.156,52.3513
443.368,52.4705
443.579,52.6342
443.791,52.6217
444.003,52.7852
444.215,52.7326
444.427,52.832
444.639,52.8263
444.851,52.7955
445.063,52.8176
445.275,52.9802
445.487,52.983
445.699,52.8349
445.91,53.0366
446.122,53.112
446.334,53.143
446.546,53.3981
446.758,53.3769
446.969,53.316
447.181,53.274
447.393,53.4246
447.605,53.2076
447.816,53.1884
448.028,53.1271
448.24,53.0623
448.451,53.1218
448.663,53.0215
448.875,53.0067
449.086,52.8282
449.298,52.2523
449.51,52.2453
449.721,52.1516
449.933,52.1926
450.144,52.0946
450.356,52.3656
450.567,52.4968
450.779,52.2076
450.99,51.9468
451.202,51.7051
451.413,51.5018
451.625,51.5346
451.836,51.3862
452.048,51.1034
452.259,51.0215
452.471,50.8582
452.682,50.7722
452.894,50.6985
453.105,50.6131
453.316,50.5314
453.528,50.5167
453.739,50.5956
453.95,50.4568
454.162,50.425
454.373,50.3508
454.584,50.0148
454.796,49.9372
455.007,50.0032
455.218,49.8332
455.429,49.8829
455.641,49.6134
455.852,49.4275
456.063,49.1491
456.274,49.0356
456.485,48.8321
456.697,48.9016
456.908,48.6835
457.119,48.7866
457.33,48.6743
457.541,48.5178
457.752,48.3799
457.963,48.2904
458.174,48.224
458.385,48.3593
458.596,48.2238
458.807,48.1928
459.018,48.1005
459.229,48.0477
459.44,48.1135
459.651,48.1843
459.862,48.0127
460.073,48.0112
460.284,48.0322
460.495,47.9754
460.706,47.967
460.917,48.2252
461.128,47.9114
461.339,48.0838
461.55,48.159
461.76,48.2425
461.971,48.1806
462.182,48.115
462.393,47.8232
462.604,47.6824
462.815,47.7873
463.025,47.8627
463.236,47.9128
463.447,47.892
463.658,47.8356
463.868,48.1013
464.079,47.9065
464.29,47.878
464.5,47.996
464.711,48.1547
464.922,48.1431
465.132,48.3595
465.343,48.1421
465.553,48.1327
465.764,48.2069
465.975,47.9399
466.185,48.0532
466.396,48.0027
466.606,47.7789
466.817,48.022
467.027,47.8297
467.238,47.7247
467.448,47.631
467.659,47.7329
467.869,47.7602
468.08,47.7653
468.29,47.9597
468.501,48.0736
468.711,47.9976
468.921,48.0261
469.132,48.1221
469.342,47.944
469.553,48.1305
469.763,48.161
469.973,48.1496
470.184,48.1266
470.394,47.9843
470.604,47.9805
470.814,47.9185
471.025,48.1164
471.235,47.9403
471.445,47.954
471.655,47.824
471.866,47.8315
472.076,47.8232
472.286,47.7853
472.496,47.823
472.706,48.1142
472.916,47.9809
473.127,48.1584
473.337,48.236
473.547,48.2034
473.757,48.0251
473.967,48.028
474.177,48.0555
474.387,48.2431
474.597,48.2617
474.807,48.2914
475.017,48.3165
475.227,48.5013
475.437,48.5083
475.647,48.4781
475.857,48.4296
476.067,48.6044
476.277,48.7302
476.487,48.6061
476.697,49.6358
476.907,49.7639
477.117,49.5938
477.326,49.3515
477.536,49.3205
477.746,49.3334
477.956,49.2722
478.166,49.1932
478.376,49.291
478.585,49.2066
478.795,49.0917
479.005,49.1628
479.215,49.0285
479.424,49.067
479.634,49.0646
479.844,48.8469
480.053,48.7652
480.263,48.5835
480.473,48.4168
480.682,48.3346
480.892,48.1288
481.102,48.1849
481.311,48.0791
481.521,48.0492
481.73,47.6705
481.94,47.7659
482.15,47.8865
482.359,47.8662
482.569,47.7653
482.778,47.9179
482.988,47.7997
483.197,48.0011
483.407,47.9528
483.616,47.9642
483.826,48.0893
484.035,48.3169
484.244,48.4231
484.454,48.5211
484.663,48.4543
484.873,48.3893
485.082,48.2813
485.291,48.1891
485.501,48.0636
485.71,47.7706
485.919,47.5483
486.129,47.5782
486.338,47.5796
486.547,47.4344
486.756,47.3272
486.966,47.2719
487.175,47.2389
487.384,47.0565
487.593,47.0184
487.803,47.1552
488.012,46.9402
488.221,46.4014
488.43,46.1173
488.639,46.0495
488.848,45.7408
489.057,45.5463
489.267,45.5174
489.476,45.5838
489.685,45.6947
489.894,45.7326
490.103,45.8618
490.312,46.0185
490.521,45.9916
490.73,45.8296
490.939,45.7864
491.148,45.8699
491.357,45.9023
491.566,45.8918
491.775,45.8677
491.984,45.58
492.193,45.5054
492.401,45.5229
492.61,45.2886
492.819,45.0662
493.028,45.0911
493.237,45.1675
493.446,45.0852
493.655,45.0685
493.863,44.8315
494.072,44.7357
494.281,44.6721
494.49,44.6579
494.699,44.5806
494.907,44.3379
495.116,44.2047
495.325,44.2456
495.533,44.1872
495.742,44.0753
495.951,43.9137
496.159,43.8829
496.368,43.9004
496.577,44.0223
496.785,43.9993
496.994,43.9895
497.202,43.952
497.411,43.9707
497.62,43.8334
497.828,44.0056
498.037,43.9532
498.245,44.0186
498.454,44.2766
498.662,44.2752
498.871,44.4879
499.079,44.5352
499.288,44.1344
499.496,44.246
499.705,44.126
499.913,43.9455
500.121,43.9198
500.33,44.2648
500.538,44.1676
500.746,44.2644
500.955,44.2159
501.163,44.2259
501.371,44.349
501.58,44.2542
501.788,43.9351
501.996,44.0143
502.205,43.8509
502.413,43.7291
502.621,43.5493
502.829,43.3883
503.038,43.0772
503.246,43.1234
503.454,42.9054
503.662,42.7585
503.87,42.5875
504.078,42.6545
504.287,42.5166
504.495,42.5751
504.703,42.5932
504.911,42.4561
505.119,42.4069
505.327,42.3152
505.535,42.0697
505.743,41.9134
505.951,41.7644
506.159,41.7225
506.367,41.8237
506.575,41.6668
506.783,41.3989
506.991,41.3972
507.199,41.2385
507.407,41.3567
507.615,41.3263
507.823,41.3512
508.031,41.4761
508.238,41.5505
508.446,41.4983
508.654,41.7897
508.862,41.4315
509.07,41.5352
509.278,41.3679
509.485,41.278
509.693,40.8882
509.901,40.8831
510.109,40.8264
510.316,40.5929
510.524,40.2135
510.732,40.2754
510.94,40.0464
511.147,39.8145
511.355,39.6266
511.563,39.5477
511.77,39.8646
511.978,39.7986
512.185,39.7273
512.393,39.8473
512.601,39.8414
512.808,39.8363
513.016,39.7057
513.223,39.6568
513.431,39.476
513.638,39.4695
513.846,39.5198
514.053,39.4281
514.261,39.0935
514.468,39.0591
514.676,39.1538
514.883,39.186
515.091,39.1312
515.298,39.0501
515.505,39.0644
515.713,38.9737
515.92,38.9158
516.128,38.7583
516.335,38.6902
516.542,38.6203
516.75,38.6674
516.957,38.5665
517.164,38.3088
517.371,38.319
517.579,38.0858
517.786,38.0184
517.993,37.6989
518.2,37.6068
518.408,37.8005
518.615,36.8901
518.822,36.6355
519.029,36.6317
519.236,36.7156
519.443,36.6058
519.65,36.434
519.858,36.3969
520.065,36.4348
520.272,36.3729
520.479,36.4018
520.686,36.3378
520.893,36.1273
521.1,35.882
521.307,35.7283
521.514,35.6006
521.721,35.547
521.928,35.4455
522.135,35.2128
522.342,35.3104
522.549,35.3102
522.756,35.3051
522.963,35.377
523.17,35.484
523.376,35.289
523.583,35.3159
523.79,35.7416
523.997,35.5199
524.204,35.357
524.411,35.3517
524.617,35.3876
524.824,35.4436
525.031,35.1182
525.238,34.914
525.444,34.8498
525.651,34.6952
525.858,34.5992
526.065,34.5682
526.271,34.5711
526.478,34.4494
526.685,34.5024
526.891,34.4877
527.098,34.4419
527.304,34.4865
527.511,34.7111
527.718,34.751
527.924,34.7386
528.131,34.892
528.337,34.8824
528.544,34.835
528.75,34.7871
528.957,34.882
529.163,35.0021
529.37,34.9236
529.576,34.7496
529.783,34.8062
529.989,34.8767
530.196,34.8943
530.402,34.796
530.608,34.9142
530.815,34.7598
531.021,34.6852
531.228,34.4763
531.434,34.3469
531.64,34.3062
531.847,34.265
532.053,33.9693
532.259,34.0478
532.465,34.0307
532.672,34.6931
532.878,34.6014
533.084,34.3979
533.29,34.4973
533.497,34.4305
533.703,34.4959
533.909,34.4657
534.115,34.4839
534.321,34.4739
534.527,34.4021
534.734,34.178
534.94,33.9029
535.146,34.1352
535.352,33.9985
535.558,34.2652
535.764,34.3722
535.97,34.3663
536.176,34.4195
536.382,34.5122
536.588,34.6214
536.794,34.5042
537,34.351
537.206,34.278
537.412,34.3021
537.618,34.1666
537.824,34.1348
538.03,34.1254
538.235,33.952
538.441,33.9789
538.647,34.1348
538.853,34.1058
539.059,34.0148
539.265,33.922
539.471,33.9934
539.676,34.0031
539.882,33.8183
540.088,33.6494
540.294,33.6325
540.499,33.328
540.705,33.2123
540.911,33.5153
541.116,33.4915
541.322,33.6543
541.528,33.8226
541.733,33.9165
541.939,33.3729
542.145,33.3339
542.35,33.1964
542.556,33.2412
542.762,33.3089
542.967,32.9867
543.173,32.8936
543.378,32.9865
543.584,32.8172
543.789,32.9349
543.995,32.8836
544.2,33.0022
544.406,33.0918
544.611,33.2828
544.817,33.2962
545.022,33.2074
545.227,33.1511
545.433,33.2691
545.638,33.091
545.844,33.1096
546.049,33.1436
546.254,32.9584
546.46,33.0882
546.665,33.0621
546.87,32.9781
547.076,33.1128
547.281,33.1532
547.486,33.2708
547.691,33.468
547.897,33.227
548.102,33.1717
548.307,33.2111
548.512,33.1475
548.717,33.2447
548.923,33.2494
549.128,33.3295
549.333,33.2341
549.538,33.2308
549.743,33.0417
549.948,33.2322
550.153,33.0407
550.358,33.209
550.563,33.1206
550.768,33.0766
550.974,33.0091
551.179,33.2891
551.384,32.9777
551.589,33.0344
551.793,32.9358
551.998,33.133
552.203,33.1681
552.408,33.2832
552.613,33.2702
552.818,33.3735
553.023,33.426
553.228,32.9622
553.433,32.8646
553.638,32.7951
553.842,32.5726
554.047,32.4671
554.252,32.4226
554.457,32.4557
554.662,32.6058
554.866,32.605
555.071,32.6227
555.276,32.5857
555.481,32.627
555.685,32.6888
555.89,32.8402
556.095,32.755
556.299,32.7291
556.504,32.7338
556.709,32.5885
556.913,32.5529
557.118,32.462
557.322,32.5341
557.527,32.5143
557.732,32.4587
557.936,32.2623
558.141,32.2231
558.345,32.2211
558.55,32.2213
558.754,32.1363
558.959,32.2462
559.163,32.3633
559.368,32.5082
559.572,32.2509
559.777,32.0379
559.981,31.947
560.185,31.8951
560.39,31.8989
560.594,31.7897
560.798,31.8184
561.003,31.9012
561.207,32.1842
561.411,32.021
561.616,32.0577
561.82,31.9916
562.024,31.8347
562.229,31.8121
562.433,31.9432
562.637,32.1532
562.841,32.0422
563.046,31.9796
563.25,32.1251
563.454,32.2323
563.658,32.0479
563.862,32.1188
564.066,32.0029
564.27,31.9631
564.475,31.8133
564.679,32.1221
564.883,32.3203
565.087,31.8547
565.291,32.0481
565.495,32.1239
565.699,31.9641
565.903,31.6346
566.107,31.4453
566.311,31.4734
566.515,31.503
566.719,31.657
566.923,31.6218
567.127,31.7239
567.331,31.7129
567.534,31.4814
567.738,31.6917
567.942,31.6846
568.146,31.9947
568.35,31.9262
568.554,31.7797
568.758,31.7239
568.961,31.7903
569.165,31.6277
569.369,31.3286
569.573,31.4688
569.776,31.471
569.98,31.4341
570.184,31.268
570.388,31.2318
570.591,31.181
570.795,31.1346
570.999,30.9787
571.202,30.9159
571.406,30.9102
571.609,31.0343
571.813,31.0251
572.017,31.1853
572.22,31.2794
572.424,31.5118
572.627,31.4174
572.831,31.4728
573.034,31.3118
573.238,31.6772
573.441,31.6316
573.645,31.5772
573.848,30.9076
574.052,30.7044
574.255,30.7574
574.459,30.6944
574.662,30.7146
574.865,30.8617
575.069,30.8831
575.272,30.962
575.475,30.9332
575.679,30.9373
575.882,30.9787
